[Header]
Application Name	LabSolutions
Version	5.73
Data File Name	C:\LabSolutions\Data\Project1\stephen\2016-01-04\5.gcd
Output Date	1/5/2016
Output Time	4:51:29 PM

[Configuration]
Instrument Name	WEISSTA-PC-Instrument1
Instrument #	1
Line #	1
# of Detectors	1
Detector ID	DET#2
Detector Name	DFID1
# of Channels	1

[Chromatogram (Ch1)]
Interval(msec)	40
# of Points	9600
Start Time(min)	0.000
End Time(min)	6.399
R.Time (min)	Intensity
0.00000	5
0.00067	5
0.00133	5
0.00200	5
0.00267	5
0.00333	4
0.00400	4
0.00467	4
0.00533	4
0.00600	4
0.00667	5
0.00733	5
0.00800	6
0.00867	7
0.00933	8
0.01000	9
0.01067	11
0.01133	12
0.01200	14
0.01267	16
0.01333	18
0.01400	21
0.01467	23
0.01533	26
0.01600	29
0.01667	32
0.01733	35
0.01800	38
0.01867	42
0.01933	45
0.02000	49
0.02067	52
0.02133	56
0.02200	59
0.02267	62
0.02333	65
0.02400	68
0.02467	71
0.02533	73
0.02600	76
0.02667	78
0.02733	80
0.02800	82
0.02867	83
0.02933	85
0.03000	86
0.03067	87
0.03133	88
0.03200	89
0.03267	89
0.03333	90
0.03400	90
0.03467	90
0.03533	90
0.03600	90
0.03667	90
0.03733	90
0.03800	90
0.03867	89
0.03933	89
0.04000	88
0.04067	88
0.04133	87
0.04200	87
0.04267	86
0.04333	85
0.04400	85
0.04467	84
0.04533	83
0.04600	82
0.04667	81
0.04733	80
0.04800	79
0.04867	78
0.04933	77
0.05000	76
0.05067	75
0.05133	74
0.05200	73
0.05267	72
0.05333	72
0.05400	71
0.05467	70
0.05533	69
0.05600	68
0.05667	67
0.05733	66
0.05800	65
0.05867	64
0.05933	63
0.06000	62
0.06067	62
0.06133	61
0.06200	60
0.06267	60
0.06333	59
0.06400	58
0.06467	58
0.06533	57
0.06600	57
0.06667	56
0.06733	56
0.06800	56
0.06867	55
0.06933	55
0.07000	55
0.07067	54
0.07133	54
0.07200	54
0.07267	54
0.07333	54
0.07400	53
0.07467	53
0.07533	53
0.07600	53
0.07667	53
0.07733	53
0.07800	53
0.07867	52
0.07933	52
0.08000	52
0.08067	52
0.08133	52
0.08200	52
0.08267	52
0.08333	52
0.08400	52
0.08467	52
0.08533	53
0.08600	53
0.08667	53
0.08733	54
0.08800	55
0.08867	56
0.08933	57
0.09000	62
0.09067	70
0.09133	81
0.09200	97
0.09267	113
0.09333	129
0.09400	144
0.09467	161
0.09533	182
0.09600	204
0.09667	226
0.09733	253
0.09800	291
0.09867	349
0.09933	442
0.10000	537
0.10067	626
0.10133	713
0.10200	799
0.10267	883
0.10333	964
0.10400	1042
0.10467	1117
0.10533	1190
0.10600	1262
0.10667	1332
0.10733	1397
0.10800	1462
0.10867	1541
0.10933	1619
0.11000	1696
0.11067	1776
0.11133	1880
0.11200	1990
0.11267	2111
0.11333	2229
0.11400	2339
0.11467	2442
0.11533	2540
0.11600	2634
0.11667	2721
0.11733	2807
0.11800	2891
0.11867	2967
0.11933	3046
0.12000	3127
0.12067	3200
0.12133	3265
0.12200	3322
0.12267	3374
0.12333	3419
0.12400	3459
0.12467	3491
0.12533	3519
0.12600	3542
0.12667	3560
0.12733	3573
0.12800	3581
0.12867	3584
0.12933	3584
0.13000	3587
0.13067	3623
0.13133	3836
0.13200	4656
0.13267	7097
0.13333	13258
0.13400	26789
0.13467	53635
0.13533	102408
0.13600	185522
0.13667	319270
0.13733	523787
0.13800	821176
0.13867	1234774
0.13933	1787365
0.14000	2501059
0.14067	3396083
0.14133	4490485
0.14200	5799753
0.14267	7335985
0.14333	9107989
0.14400	11120643
0.14467	13376194
0.14533	15874746
0.14600	18615521
0.14667	21597097
0.14733	24818956
0.14800	28279198
0.14867	31973877
0.14933	35894420
0.15000	40029207
0.15067	44366972
0.15133	48897304
0.15200	53607122
0.15267	58479959
0.15333	63495996
0.15400	68633828
0.15467	73872147
0.15533	79190856
0.15600	84571548
0.15667	89997732
0.15733	95454517
0.15800	100928300
0.15867	106406302
0.15933	111876457
0.16000	117327466
0.16067	122748625
0.16133	128129597
0.16200	133460448
0.16267	138731969
0.16333	143935830
0.16400	149063939
0.16467	154109059
0.16533	159064561
0.16600	163924505
0.16667	168683149
0.16733	173335145
0.16800	177875160
0.16867	182298583
0.16933	186600990
0.17000	190778175
0.17067	194826303
0.17133	198741590
0.17200	202520191
0.17267	206158179
0.17333	209651846
0.17400	212997257
0.17467	216190347
0.17533	219226302
0.17600	222099966
0.17667	224805379
0.17733	227336588
0.17800	229686973
0.17867	231850598
0.17933	233822457
0.18000	235599188
0.18067	237178236
0.18133	238558617
0.18200	239740133
0.18267	240723628
0.18333	241510479
0.18400	242102917
0.18467	242503466
0.18533	242715300
0.18600	242742127
0.18667	242588058
0.18733	242257345
0.18800	241754441
0.18867	241084060
0.18933	240251038
0.19000	239260639
0.19067	238118289
0.19133	236829726
0.19200	235400872
0.19267	233837952
0.19333	232147118
0.19400	230334791
0.19467	228407358
0.19533	226371342
0.19600	224233140
0.19667	221999211
0.19733	219675908
0.19800	217269573
0.19867	214786436
0.19933	212232668
0.20000	209614260
0.20067	206937074
0.20133	204206779
0.20200	201428931
0.20267	198608932
0.20333	195752057
0.20400	192863478
0.20467	189948255
0.20533	187011295
0.20600	184057261
0.20667	181090593
0.20733	178115453
0.20800	175135770
0.20867	172155259
0.20933	169177593
0.21000	166206476
0.21067	163245432
0.21133	160297419
0.21200	157364697
0.21267	154448967
0.21333	151551665
0.21400	148674012
0.21467	145817245
0.21533	142982610
0.21600	140171384
0.21667	137384853
0.21733	134624300
0.21800	131890975
0.21867	129186080
0.21933	126510759
0.22000	123866091
0.22067	121253089
0.22133	118672681
0.22200	116125728
0.22267	113613003
0.22333	111135211
0.22400	108692977
0.22467	106286849
0.22533	103917296
0.22600	101584714
0.22667	99289431
0.22733	97031714
0.22800	94811761
0.22867	92629712
0.22933	90485649
0.23000	88379602
0.23067	86311549
0.23133	84281422
0.23200	82289109
0.23267	80334458
0.23333	78417278
0.23400	76537340
0.23467	74694387
0.23533	72888127
0.23600	71118242
0.23667	69384387
0.23733	67686196
0.23800	66023276
0.23867	64395219
0.23933	62801594
0.24000	61241967
0.24067	59715884
0.24133	58222883
0.24200	56762488
0.24267	55334213
0.24333	53937565
0.24400	52572043
0.24467	51237144
0.24533	49932361
0.24600	48657187
0.24667	47411110
0.24733	46193621
0.24800	45004209
0.24867	43842363
0.24933	42707575
0.25000	41599342
0.25067	40517161
0.25133	39460540
0.25200	38428985
0.25267	37422015
0.25333	36439148
0.25400	35479910
0.25467	34543834
0.25533	33630455
0.25600	32739318
0.25667	31869971
0.25733	31021968
0.25800	30194868
0.25867	29388237
0.25933	28601647
0.26000	27834678
0.26067	27086911
0.26133	26357939
0.26200	25647359
0.26267	24954775
0.26333	24279796
0.26400	23622038
0.26467	22981122
0.26533	22356676
0.26600	21748333
0.26667	21155734
0.26733	20578524
0.26800	20016356
0.26867	19468886
0.26933	18935783
0.27000	18416715
0.27067	17911361
0.27133	17419401
0.27200	16940527
0.27267	16474433
0.27333	16020821
0.27400	15579399
0.27467	15149880
0.27533	14731984
0.27600	14325438
0.27667	13929970
0.27733	13545320
0.27800	13171228
0.27867	12807445
0.27933	12453725
0.28000	12109825
0.28067	11775511
0.28133	11450552
0.28200	11134725
0.28267	10827814
0.28333	10529608
0.28400	10239906
0.28467	9958512
0.28533	9685240
0.28600	9419910
0.28667	9162355
0.28733	8912416
0.28800	8669952
0.28867	8434833
0.28933	8206948
0.29000	7986199
0.29067	7772508
0.29133	7565803
0.29200	7366023
0.29267	7173109
0.29333	6987003
0.29400	6807647
0.29467	6634974
0.29533	6468913
0.29600	6309380
0.29667	6156282
0.29733	6009514
0.29800	5868966
0.29867	5734513
0.29933	5606027
0.30000	5483363
0.30067	5366373
0.30133	5254898
0.30200	5148775
0.30267	5047837
0.30333	4951912
0.30400	4860821
0.30467	4774384
0.30533	4692413
0.30600	4614720
0.30667	4541117
0.30733	4471415
0.30800	4405423
0.30867	4342950
0.30933	4283808
0.31000	4227810
0.31067	4174774
0.31133	4124522
0.31200	4076885
0.31267	4031700
0.31333	3988816
0.31400	3948087
0.31467	3909377
0.31533	3872561
0.31600	3837519
0.31667	3804140
0.31733	3772324
0.31800	3741977
0.31867	3713009
0.31933	3685335
0.32000	3658871
0.32067	3633531
0.32133	3609226
0.32200	3585865
0.32267	3563360
0.32333	3541625
0.32400	3520579
0.32467	3500142
0.32533	3480234
0.32600	3460770
0.32667	3441661
0.32733	3422815
0.32800	3404134
0.32867	3385514
0.32933	3366847
0.33000	3348027
0.33067	3328948
0.33133	3309504
0.33200	3289594
0.33267	3269113
0.33333	3247964
0.33400	3226052
0.33467	3203295
0.33533	3179615
0.33600	3154948
0.33667	3129239
0.33733	3102449
0.33800	3074550
0.33867	3045533
0.33933	3015406
0.34000	2984195
0.34067	2951934
0.34133	2918673
0.34200	2884467
0.34267	2849379
0.34333	2813479
0.34400	2776837
0.34467	2739527
0.34533	2701621
0.34600	2663193
0.34667	2624316
0.34733	2585060
0.34800	2545495
0.34867	2505687
0.34933	2465698
0.35000	2425589
0.35067	2385417
0.35133	2345237
0.35200	2305098
0.35267	2265049
0.35333	2225132
0.35400	2185390
0.35467	2145860
0.35533	2106579
0.35600	2067578
0.35667	2028890
0.35733	1990539
0.35800	1952553
0.35867	1914953
0.35933	1877762
0.36000	1840997
0.36067	1804676
0.36133	1768813
0.36200	1733422
0.36267	1698514
0.36333	1664101
0.36400	1630192
0.36467	1596795
0.36533	1563919
0.36600	1531570
0.36667	1499752
0.36733	1468469
0.36800	1437724
0.36867	1407518
0.36933	1377851
0.37000	1348725
0.37067	1320136
0.37133	1292085
0.37200	1264568
0.37267	1237583
0.37333	1211127
0.37400	1185196
0.37467	1159786
0.37533	1134891
0.37600	1110508
0.37667	1086631
0.37733	1063255
0.37800	1040373
0.37867	1017978
0.37933	996065
0.38000	974625
0.38067	953651
0.38133	933138
0.38200	913080
0.38267	893472
0.38333	874309
0.38400	855586
0.38467	837297
0.38533	819435
0.38600	801997
0.38667	784975
0.38733	768365
0.38800	752162
0.38867	736361
0.38933	720960
0.39000	705955
0.39067	691345
0.39133	677129
0.39200	663306
0.39267	649873
0.39333	636827
0.39400	624161
0.39467	611865
0.39533	599930
0.39600	588348
0.39667	577110
0.39733	566207
0.39800	555629
0.39867	545367
0.39933	535411
0.40000	525752
0.40067	516380
0.40133	507287
0.40200	498463
0.40267	489901
0.40333	481591
0.40400	473525
0.40467	465695
0.40533	458093
0.40600	450712
0.40667	443544
0.40733	436582
0.40800	429818
0.40867	423246
0.40933	416859
0.41000	410650
0.41067	404615
0.41133	398746
0.41200	393038
0.41267	387485
0.41333	382084
0.41400	376827
0.41467	371712
0.41533	366732
0.41600	361883
0.41667	357162
0.41733	352562
0.41800	348080
0.41867	343713
0.41933	339455
0.42000	335304
0.42067	331255
0.42133	327305
0.42200	323451
0.42267	319689
0.42333	316017
0.42400	312430
0.42467	308927
0.42533	305504
0.42600	302159
0.42667	298888
0.42733	295690
0.42800	292563
0.42867	289503
0.42933	286508
0.43000	283577
0.43067	280707
0.43133	277895
0.43200	275141
0.43267	272442
0.43333	269795
0.43400	267201
0.43467	264655
0.43533	262158
0.43600	259708
0.43667	257303
0.43733	254941
0.43800	252623
0.43867	250344
0.43933	248106
0.44000	245906
0.44067	243744
0.44133	241617
0.44200	239526
0.44267	237469
0.44333	235445
0.44400	233453
0.44467	231492
0.44533	229561
0.44600	227660
0.44667	225788
0.44733	223943
0.44800	222126
0.44867	220334
0.44933	218568
0.45000	216827
0.45067	215110
0.45133	213416
0.45200	211745
0.45267	210096
0.45333	208468
0.45400	206861
0.45467	205273
0.45533	203706
0.45600	202157
0.45667	200627
0.45733	199114
0.45800	197619
0.45867	196140
0.45933	194679
0.46000	193233
0.46067	191803
0.46133	190389
0.46200	188990
0.46267	187606
0.46333	186237
0.46400	184882
0.46467	183542
0.46533	182216
0.46600	180904
0.46667	179606
0.46733	178323
0.46800	177053
0.46867	175796
0.46933	174554
0.47000	173325
0.47067	172110
0.47133	170908
0.47200	169719
0.47267	168544
0.47333	167381
0.47400	166231
0.47467	165093
0.47533	163968
0.47600	162855
0.47667	161753
0.47733	160664
0.47800	159586
0.47867	158519
0.47933	157463
0.48000	156418
0.48067	155384
0.48133	154359
0.48200	153345
0.48267	152341
0.48333	151347
0.48400	150362
0.48467	149387
0.48533	148420
0.48600	147463
0.48667	146515
0.48733	145575
0.48800	144644
0.48867	143722
0.48933	142808
0.49000	141902
0.49067	141004
0.49133	140114
0.49200	139232
0.49267	138358
0.49333	137492
0.49400	136633
0.49467	135781
0.49533	134937
0.49600	134100
0.49667	133270
0.49733	132447
0.49800	131630
0.49867	130821
0.49933	130019
0.50000	129223
0.50067	128434
0.50133	127651
0.50200	126875
0.50267	126106
0.50333	125343
0.50400	124586
0.50467	123835
0.50533	123090
0.50600	122352
0.50667	121620
0.50733	120894
0.50800	120174
0.50867	119460
0.50933	118752
0.51000	118050
0.51067	117353
0.51133	116663
0.51200	115978
0.51267	115299
0.51333	114625
0.51400	113957
0.51467	113294
0.51533	112637
0.51600	111984
0.51667	111337
0.51733	110695
0.51800	110058
0.51867	109426
0.51933	108798
0.52000	108176
0.52067	107558
0.52133	106945
0.52200	106336
0.52267	105733
0.52333	105134
0.52400	104539
0.52467	103949
0.52533	103364
0.52600	102783
0.52667	102206
0.52733	101634
0.52800	101067
0.52867	100503
0.52933	99944
0.53000	99390
0.53067	98839
0.53133	98293
0.53200	97751
0.53267	97213
0.53333	96679
0.53400	96149
0.53467	95624
0.53533	95102
0.53600	94585
0.53667	94071
0.53733	93561
0.53800	93056
0.53867	92554
0.53933	92056
0.54000	91562
0.54067	91072
0.54133	90586
0.54200	90103
0.54267	89625
0.54333	89150
0.54400	88679
0.54467	88211
0.54533	87747
0.54600	87287
0.54667	86830
0.54733	86377
0.54800	85927
0.54867	85481
0.54933	85039
0.55000	84599
0.55067	84164
0.55133	83732
0.55200	83303
0.55267	82878
0.55333	82455
0.55400	82037
0.55467	81622
0.55533	81210
0.55600	80802
0.55667	80396
0.55733	79994
0.55800	79596
0.55867	79200
0.55933	78808
0.56000	78418
0.56067	78032
0.56133	77649
0.56200	77269
0.56267	76892
0.56333	76518
0.56400	76147
0.56467	75780
0.56533	75415
0.56600	75053
0.56667	74695
0.56733	74339
0.56800	73987
0.56867	73638
0.56933	73291
0.57000	72948
0.57067	72608
0.57133	72270
0.57200	71936
0.57267	71605
0.57333	71276
0.57400	70951
0.57467	70629
0.57533	70309
0.57600	69992
0.57667	69678
0.57733	69367
0.57800	69059
0.57867	68754
0.57933	68451
0.58000	68151
0.58067	67854
0.58133	67559
0.58200	67267
0.58267	66978
0.58333	66691
0.58400	66406
0.58467	66124
0.58533	65844
0.58600	65567
0.58667	65291
0.58733	65018
0.58800	64746
0.58867	64477
0.58933	64210
0.59000	63944
0.59067	63681
0.59133	63419
0.59200	63159
0.59267	62901
0.59333	62645
0.59400	62391
0.59467	62138
0.59533	61887
0.59600	61637
0.59667	61390
0.59733	61143
0.59800	60899
0.59867	60656
0.59933	60414
0.60000	60174
0.60067	59935
0.60133	59698
0.60200	59462
0.60267	59228
0.60333	58995
0.60400	58764
0.60467	58534
0.60533	58305
0.60600	58078
0.60667	57852
0.60733	57628
0.60800	57405
0.60867	57183
0.60933	56963
0.61000	56744
0.61067	56526
0.61133	56309
0.61200	56094
0.61267	55880
0.61333	55667
0.61400	55455
0.61467	55245
0.61533	55036
0.61600	54828
0.61667	54622
0.61733	54417
0.61800	54213
0.61867	54011
0.61933	53810
0.62000	53611
0.62067	53413
0.62133	53217
0.62200	53022
0.62267	52829
0.62333	52637
0.62400	52446
0.62467	52257
0.62533	52069
0.62600	51883
0.62667	51699
0.62733	51515
0.62800	51333
0.62867	51152
0.62933	50973
0.63000	50795
0.63067	50618
0.63133	50443
0.63200	50270
0.63267	50098
0.63333	49927
0.63400	49758
0.63467	49590
0.63533	49424
0.63600	49259
0.63667	49095
0.63733	48933
0.63800	48771
0.63867	48610
0.63933	48451
0.64000	48293
0.64067	48135
0.64133	47979
0.64200	47823
0.64267	47669
0.64333	47515
0.64400	47362
0.64467	47210
0.64533	47059
0.64600	46908
0.64667	46759
0.64733	46610
0.64800	46463
0.64867	46316
0.64933	46171
0.65000	46026
0.65067	45883
0.65133	45740
0.65200	45599
0.65267	45459
0.65333	45320
0.65400	45182
0.65467	45046
0.65533	44910
0.65600	44776
0.65667	44643
0.65733	44511
0.65800	44380
0.65867	44250
0.65933	44121
0.66000	43994
0.66067	43867
0.66133	43741
0.66200	43616
0.66267	43491
0.66333	43367
0.66400	43244
0.66467	43122
0.66533	43000
0.66600	42878
0.66667	42757
0.66733	42636
0.66800	42516
0.66867	42396
0.66933	42276
0.67000	42157
0.67067	42038
0.67133	41919
0.67200	41801
0.67267	41683
0.67333	41566
0.67400	41449
0.67467	41332
0.67533	41215
0.67600	41099
0.67667	40983
0.67733	40868
0.67800	40753
0.67867	40639
0.67933	40525
0.68000	40412
0.68067	40299
0.68133	40187
0.68200	40075
0.68267	39964
0.68333	39854
0.68400	39744
0.68467	39635
0.68533	39527
0.68600	39420
0.68667	39314
0.68733	39208
0.68800	39104
0.68867	39000
0.68933	38898
0.69000	38796
0.69067	38696
0.69133	38597
0.69200	38499
0.69267	38403
0.69333	38308
0.69400	38216
0.69467	38125
0.69533	38036
0.69600	37950
0.69667	37866
0.69733	37785
0.69800	37707
0.69867	37632
0.69933	37560
0.70000	37492
0.70067	37427
0.70133	37366
0.70200	37308
0.70267	37255
0.70333	37205
0.70400	37158
0.70467	37115
0.70533	37075
0.70600	37038
0.70667	37004
0.70733	36972
0.70800	36941
0.70867	36913
0.70933	36885
0.71000	36858
0.71067	36831
0.71133	36803
0.71200	36775
0.71267	36745
0.71333	36714
0.71400	36681
0.71467	36646
0.71533	36608
0.71600	36568
0.71667	36526
0.71733	36480
0.71800	36432
0.71867	36381
0.71933	36327
0.72000	36270
0.72067	36211
0.72133	36149
0.72200	36085
0.72267	36019
0.72333	35950
0.72400	35879
0.72467	35806
0.72533	35732
0.72600	35655
0.72667	35577
0.72733	35498
0.72800	35417
0.72867	35335
0.72933	35252
0.73000	35168
0.73067	35084
0.73133	34998
0.73200	34912
0.73267	34825
0.73333	34738
0.73400	34650
0.73467	34562
0.73533	34473
0.73600	34385
0.73667	34296
0.73733	34207
0.73800	34118
0.73867	34029
0.73933	33940
0.74000	33851
0.74067	33762
0.74133	33673
0.74200	33585
0.74267	33496
0.74333	33408
0.74400	33320
0.74467	33232
0.74533	33144
0.74600	33057
0.74667	32970
0.74733	32883
0.74800	32797
0.74867	32711
0.74933	32625
0.75000	32540
0.75067	32455
0.75133	32370
0.75200	32286
0.75267	32203
0.75333	32120
0.75400	32037
0.75467	31955
0.75533	31873
0.75600	31792
0.75667	31711
0.75733	31631
0.75800	31551
0.75867	31472
0.75933	31394
0.76000	31316
0.76067	31238
0.76133	31161
0.76200	31085
0.76267	31009
0.76333	30934
0.76400	30860
0.76467	30786
0.76533	30713
0.76600	30640
0.76667	30568
0.76733	30497
0.76800	30427
0.76867	30357
0.76933	30287
0.77000	30218
0.77067	30150
0.77133	30083
0.77200	30015
0.77267	29949
0.77333	29883
0.77400	29818
0.77467	29753
0.77533	29689
0.77600	29625
0.77667	29562
0.77733	29499
0.77800	29437
0.77867	29375
0.77933	29314
0.78000	29253
0.78067	29193
0.78133	29133
0.78200	29073
0.78267	29014
0.78333	28955
0.78400	28897
0.78467	28839
0.78533	28782
0.78600	28725
0.78667	28668
0.78733	28612
0.78800	28556
0.78867	28500
0.78933	28445
0.79000	28390
0.79067	28336
0.79133	28282
0.79200	28228
0.79267	28175
0.79333	28122
0.79400	28069
0.79467	28017
0.79533	27965
0.79600	27913
0.79667	27862
0.79733	27811
0.79800	27761
0.79867	27711
0.79933	27661
0.80000	27611
0.80067	27562
0.80133	27513
0.80200	27464
0.80267	27416
0.80333	27368
0.80400	27320
0.80467	27272
0.80533	27224
0.80600	27177
0.80667	27130
0.80733	27083
0.80800	27037
0.80867	26990
0.80933	26944
0.81000	26898
0.81067	26853
0.81133	26807
0.81200	26762
0.81267	26717
0.81333	26672
0.81400	26627
0.81467	26583
0.81533	26539
0.81600	26495
0.81667	26451
0.81733	26407
0.81800	26364
0.81867	26321
0.81933	26278
0.82000	26235
0.82067	26192
0.82133	26150
0.82200	26107
0.82267	26065
0.82333	26023
0.82400	25981
0.82467	25940
0.82533	25898
0.82600	25857
0.82667	25816
0.82733	25775
0.82800	25734
0.82867	25694
0.82933	25654
0.83000	25613
0.83067	25573
0.83133	25534
0.83200	25494
0.83267	25455
0.83333	25416
0.83400	25377
0.83467	25338
0.83533	25299
0.83600	25260
0.83667	25222
0.83733	25183
0.83800	25145
0.83867	25107
0.83933	25069
0.84000	25032
0.84067	24994
0.84133	24956
0.84200	24919
0.84267	24882
0.84333	24845
0.84400	24808
0.84467	24771
0.84533	24734
0.84600	24697
0.84667	24661
0.84733	24624
0.84800	24588
0.84867	24551
0.84933	24515
0.85000	24480
0.85067	24444
0.85133	24408
0.85200	24372
0.85267	24337
0.85333	24302
0.85400	24267
0.85467	24231
0.85533	24197
0.85600	24162
0.85667	24127
0.85733	24092
0.85800	24058
0.85867	24023
0.85933	23989
0.86000	23954
0.86067	23920
0.86133	23886
0.86200	23852
0.86267	23818
0.86333	23785
0.86400	23751
0.86467	23717
0.86533	23684
0.86600	23651
0.86667	23618
0.86733	23585
0.86800	23552
0.86867	23519
0.86933	23486
0.87000	23453
0.87067	23421
0.87133	23388
0.87200	23356
0.87267	23323
0.87333	23291
0.87400	23259
0.87467	23227
0.87533	23195
0.87600	23163
0.87667	23132
0.87733	23100
0.87800	23068
0.87867	23037
0.87933	23005
0.88000	22974
0.88067	22943
0.88133	22912
0.88200	22881
0.88267	22850
0.88333	22820
0.88400	22789
0.88467	22759
0.88533	22729
0.88600	22699
0.88667	22669
0.88733	22639
0.88800	22610
0.88867	22580
0.88933	22551
0.89000	22521
0.89067	22492
0.89133	22463
0.89200	22435
0.89267	22406
0.89333	22377
0.89400	22349
0.89467	22320
0.89533	22292
0.89600	22264
0.89667	22236
0.89733	22208
0.89800	22180
0.89867	22153
0.89933	22125
0.90000	22098
0.90067	22070
0.90133	22043
0.90200	22016
0.90267	21989
0.90333	21962
0.90400	21935
0.90467	21908
0.90533	21881
0.90600	21855
0.90667	21828
0.90733	21802
0.90800	21776
0.90867	21750
0.90933	21724
0.91000	21698
0.91067	21672
0.91133	21646
0.91200	21621
0.91267	21596
0.91333	21570
0.91400	21545
0.91467	21520
0.91533	21495
0.91600	21471
0.91667	21446
0.91733	21421
0.91800	21397
0.91867	21373
0.91933	21349
0.92000	21325
0.92067	21301
0.92133	21277
0.92200	21253
0.92267	21230
0.92333	21207
0.92400	21184
0.92467	21161
0.92533	21138
0.92600	21116
0.92667	21093
0.92733	21071
0.92800	21049
0.92867	21027
0.92933	21006
0.93000	20984
0.93067	20963
0.93133	20941
0.93200	20920
0.93267	20899
0.93333	20878
0.93400	20857
0.93467	20837
0.93533	20816
0.93600	20796
0.93667	20776
0.93733	20756
0.93800	20736
0.93867	20716
0.93933	20696
0.94000	20676
0.94067	20656
0.94133	20637
0.94200	20617
0.94267	20598
0.94333	20578
0.94400	20559
0.94467	20539
0.94533	20519
0.94600	20500
0.94667	20480
0.94733	20461
0.94800	20441
0.94867	20422
0.94933	20402
0.95000	20383
0.95067	20363
0.95133	20344
0.95200	20324
0.95267	20305
0.95333	20286
0.95400	20266
0.95467	20247
0.95533	20228
0.95600	20209
0.95667	20191
0.95733	20172
0.95800	20154
0.95867	20135
0.95933	20117
0.96000	20100
0.96067	20082
0.96133	20065
0.96200	20047
0.96267	20030
0.96333	20014
0.96400	19997
0.96467	19981
0.96533	19965
0.96600	19949
0.96667	19934
0.96733	19918
0.96800	19903
0.96867	19887
0.96933	19872
0.97000	19857
0.97067	19842
0.97133	19827
0.97200	19812
0.97267	19797
0.97333	19783
0.97400	19767
0.97467	19752
0.97533	19737
0.97600	19722
0.97667	19706
0.97733	19690
0.97800	19674
0.97867	19658
0.97933	19642
0.98000	19625
0.98067	19608
0.98133	19591
0.98200	19574
0.98267	19556
0.98333	19539
0.98400	19521
0.98467	19503
0.98533	19485
0.98600	19467
0.98667	19448
0.98733	19430
0.98800	19411
0.98867	19392
0.98933	19373
0.99000	19354
0.99067	19335
0.99133	19315
0.99200	19296
0.99267	19277
0.99333	19257
0.99400	19238
0.99467	19218
0.99533	19199
0.99600	19179
0.99667	19160
0.99733	19140
0.99800	19120
0.99867	19101
0.99933	19081
1.00000	19062
1.00067	19042
1.00133	19023
1.00200	19003
1.00267	18983
1.00333	18964
1.00400	18944
1.00467	18925
1.00533	18906
1.00600	18887
1.00667	18867
1.00733	18848
1.00800	18829
1.00867	18810
1.00933	18792
1.01000	18773
1.01067	18754
1.01133	18736
1.01200	18717
1.01267	18699
1.01333	18680
1.01400	18662
1.01467	18644
1.01533	18626
1.01600	18609
1.01667	18591
1.01733	18574
1.01800	18556
1.01867	18539
1.01933	18522
1.02000	18506
1.02067	18489
1.02133	18473
1.02200	18457
1.02267	18441
1.02333	18425
1.02400	18409
1.02467	18394
1.02533	18379
1.02600	18364
1.02667	18349
1.02733	18335
1.02800	18320
1.02867	18306
1.02933	18292
1.03000	18278
1.03067	18264
1.03133	18250
1.03200	18236
1.03267	18223
1.03333	18209
1.03400	18196
1.03467	18182
1.03533	18169
1.03600	18155
1.03667	18142
1.03733	18128
1.03800	18114
1.03867	18101
1.03933	18087
1.04000	18073
1.04067	18059
1.04133	18045
1.04200	18031
1.04267	18017
1.04333	18003
1.04400	17989
1.04467	17974
1.04533	17960
1.04600	17945
1.04667	17931
1.04733	17916
1.04800	17901
1.04867	17887
1.04933	17872
1.05000	17857
1.05067	17842
1.05133	17827
1.05200	17812
1.05267	17797
1.05333	17782
1.05400	17768
1.05467	17753
1.05533	17737
1.05600	17722
1.05667	17707
1.05733	17692
1.05800	17677
1.05867	17662
1.05933	17647
1.06000	17632
1.06067	17617
1.06133	17602
1.06200	17587
1.06267	17572
1.06333	17557
1.06400	17543
1.06467	17528
1.06533	17513
1.06600	17498
1.06667	17484
1.06733	17469
1.06800	17454
1.06867	17440
1.06933	17425
1.07000	17411
1.07067	17397
1.07133	17383
1.07200	17368
1.07267	17354
1.07333	17341
1.07400	17327
1.07467	17313
1.07533	17299
1.07600	17286
1.07667	17272
1.07733	17259
1.07800	17246
1.07867	17232
1.07933	17219
1.08000	17206
1.08067	17193
1.08133	17180
1.08200	17167
1.08267	17154
1.08333	17141
1.08400	17129
1.08467	17116
1.08533	17103
1.08600	17091
1.08667	17078
1.08733	17066
1.08800	17053
1.08867	17041
1.08933	17028
1.09000	17016
1.09067	17004
1.09133	16992
1.09200	16980
1.09267	16968
1.09333	16956
1.09400	16944
1.09467	16932
1.09533	16920
1.09600	16908
1.09667	16896
1.09733	16884
1.09800	16873
1.09867	16861
1.09933	16850
1.10000	16838
1.10067	16827
1.10133	16815
1.10200	16804
1.10267	16793
1.10333	16782
1.10400	16771
1.10467	16760
1.10533	16749
1.10600	16739
1.10667	16729
1.10733	16718
1.10800	16708
1.10867	16698
1.10933	16688
1.11000	16679
1.11067	16669
1.11133	16660
1.11200	16651
1.11267	16641
1.11333	16632
1.11400	16623
1.11467	16615
1.11533	16606
1.11600	16597
1.11667	16588
1.11733	16580
1.11800	16571
1.11867	16563
1.11933	16555
1.12000	16546
1.12067	16538
1.12133	16529
1.12200	16521
1.12267	16513
1.12333	16505
1.12400	16497
1.12467	16488
1.12533	16480
1.12600	16472
1.12667	16464
1.12733	16456
1.12800	16448
1.12867	16439
1.12933	16431
1.13000	16423
1.13067	16415
1.13133	16407
1.13200	16399
1.13267	16391
1.13333	16383
1.13400	16374
1.13467	16366
1.13533	16358
1.13600	16350
1.13667	16341
1.13733	16333
1.13800	16325
1.13867	16316
1.13933	16308
1.14000	16299
1.14067	16291
1.14133	16282
1.14200	16273
1.14267	16265
1.14333	16256
1.14400	16247
1.14467	16239
1.14533	16230
1.14600	16221
1.14667	16212
1.14733	16203
1.14800	16194
1.14867	16185
1.14933	16176
1.15000	16167
1.15067	16158
1.15133	16149
1.15200	16141
1.15267	16132
1.15333	16123
1.15400	16114
1.15467	16105
1.15533	16096
1.15600	16087
1.15667	16078
1.15733	16069
1.15800	16060
1.15867	16051
1.15933	16042
1.16000	16033
1.16067	16025
1.16133	16016
1.16200	16007
1.16267	15998
1.16333	15989
1.16400	15980
1.16467	15972
1.16533	15963
1.16600	15954
1.16667	15945
1.16733	15936
1.16800	15927
1.16867	15919
1.16933	15910
1.17000	15901
1.17067	15892
1.17133	15883
1.17200	15874
1.17267	15866
1.17333	15857
1.17400	15848
1.17467	15839
1.17533	15831
1.17600	15822
1.17667	15813
1.17733	15804
1.17800	15796
1.17867	15787
1.17933	15778
1.18000	15770
1.18067	15761
1.18133	15753
1.18200	15744
1.18267	15736
1.18333	15728
1.18400	15719
1.18467	15711
1.18533	15703
1.18600	15695
1.18667	15687
1.18733	15679
1.18800	15671
1.18867	15663
1.18933	15655
1.19000	15647
1.19067	15640
1.19133	15633
1.19200	15625
1.19267	15618
1.19333	15611
1.19400	15604
1.19467	15598
1.19533	15591
1.19600	15585
1.19667	15578
1.19733	15572
1.19800	15566
1.19867	15560
1.19933	15554
1.20000	15548
1.20067	15542
1.20133	15537
1.20200	15532
1.20267	15526
1.20333	15521
1.20400	15516
1.20467	15512
1.20533	15507
1.20600	15502
1.20667	15498
1.20733	15494
1.20800	15490
1.20867	15486
1.20933	15482
1.21000	15478
1.21067	15475
1.21133	15471
1.21200	15468
1.21267	15465
1.21333	15462
1.21400	15459
1.21467	15456
1.21533	15453
1.21600	15451
1.21667	15448
1.21733	15446
1.21800	15444
1.21867	15442
1.21933	15440
1.22000	15438
1.22067	15436
1.22133	15434
1.22200	15433
1.22267	15431
1.22333	15429
1.22400	15428
1.22467	15426
1.22533	15425
1.22600	15424
1.22667	15422
1.22733	15421
1.22800	15420
1.22867	15419
1.22933	15418
1.23000	15417
1.23067	15416
1.23133	15415
1.23200	15414
1.23267	15413
1.23333	15413
1.23400	15412
1.23467	15412
1.23533	15411
1.23600	15411
1.23667	15410
1.23733	15410
1.23800	15410
1.23867	15409
1.23933	15409
1.24000	15409
1.24067	15409
1.24133	15408
1.24200	15408
1.24267	15408
1.24333	15408
1.24400	15409
1.24467	15409
1.24533	15410
1.24600	15410
1.24667	15411
1.24733	15412
1.24800	15413
1.24867	15415
1.24933	15417
1.25000	15419
1.25067	15422
1.25133	15425
1.25200	15428
1.25267	15432
1.25333	15436
1.25400	15441
1.25467	15446
1.25533	15452
1.25600	15458
1.25667	15464
1.25733	15471
1.25800	15478
1.25867	15486
1.25933	15494
1.26000	15503
1.26067	15511
1.26133	15520
1.26200	15529
1.26267	15539
1.26333	15548
1.26400	15557
1.26467	15567
1.26533	15576
1.26600	15586
1.26667	15595
1.26733	15604
1.26800	15613
1.26867	15621
1.26933	15629
1.27000	15637
1.27067	15645
1.27133	15652
1.27200	15659
1.27267	15666
1.27333	15671
1.27400	15677
1.27467	15682
1.27533	15686
1.27600	15690
1.27667	15694
1.27733	15697
1.27800	15699
1.27867	15701
1.27933	15702
1.28000	15703
1.28067	15704
1.28133	15703
1.28200	15703
1.28267	15702
1.28333	15700
1.28400	15698
1.28467	15695
1.28533	15692
1.28600	15689
1.28667	15685
1.28733	15681
1.28800	15676
1.28867	15671
1.28933	15666
1.29000	15660
1.29067	15653
1.29133	15647
1.29200	15640
1.29267	15632
1.29333	15625
1.29400	15617
1.29467	15608
1.29533	15600
1.29600	15591
1.29667	15581
1.29733	15572
1.29800	15562
1.29867	15552
1.29933	15542
1.30000	15532
1.30067	15521
1.30133	15510
1.30200	15499
1.30267	15488
1.30333	15476
1.30400	15465
1.30467	15453
1.30533	15441
1.30600	15429
1.30667	15416
1.30733	15404
1.30800	15391
1.30867	15378
1.30933	15365
1.31000	15352
1.31067	15339
1.31133	15326
1.31200	15313
1.31267	15299
1.31333	15286
1.31400	15273
1.31467	15260
1.31533	15247
1.31600	15233
1.31667	15220
1.31733	15207
1.31800	15194
1.31867	15180
1.31933	15167
1.32000	15154
1.32067	15141
1.32133	15128
1.32200	15115
1.32267	15102
1.32333	15090
1.32400	15077
1.32467	15064
1.32533	15052
1.32600	15039
1.32667	15026
1.32733	15014
1.32800	15001
1.32867	14989
1.32933	14976
1.33000	14964
1.33067	14951
1.33133	14939
1.33200	14927
1.33267	14915
1.33333	14903
1.33400	14891
1.33467	14879
1.33533	14868
1.33600	14856
1.33667	14844
1.33733	14833
1.33800	14822
1.33867	14810
1.33933	14799
1.34000	14788
1.34067	14776
1.34133	14765
1.34200	14754
1.34267	14743
1.34333	14732
1.34400	14722
1.34467	14711
1.34533	14700
1.34600	14689
1.34667	14679
1.34733	14668
1.34800	14658
1.34867	14648
1.34933	14637
1.35000	14627
1.35067	14617
1.35133	14607
1.35200	14597
1.35267	14587
1.35333	14577
1.35400	14567
1.35467	14557
1.35533	14547
1.35600	14538
1.35667	14528
1.35733	14519
1.35800	14510
1.35867	14500
1.35933	14491
1.36000	14482
1.36067	14473
1.36133	14464
1.36200	14455
1.36267	14446
1.36333	14438
1.36400	14429
1.36467	14420
1.36533	14412
1.36600	14403
1.36667	14395
1.36733	14386
1.36800	14378
1.36867	14370
1.36933	14361
1.37000	14353
1.37067	14345
1.37133	14337
1.37200	14329
1.37267	14321
1.37333	14313
1.37400	14305
1.37467	14298
1.37533	14290
1.37600	14282
1.37667	14275
1.37733	14267
1.37800	14260
1.37867	14252
1.37933	14245
1.38000	14237
1.38067	14230
1.38133	14223
1.38200	14215
1.38267	14208
1.38333	14201
1.38400	14194
1.38467	14187
1.38533	14180
1.38600	14173
1.38667	14166
1.38733	14159
1.38800	14152
1.38867	14146
1.38933	14139
1.39000	14132
1.39067	14126
1.39133	14119
1.39200	14113
1.39267	14106
1.39333	14100
1.39400	14093
1.39467	14087
1.39533	14081
1.39600	14074
1.39667	14068
1.39733	14062
1.39800	14056
1.39867	14050
1.39933	14044
1.40000	14038
1.40067	14032
1.40133	14025
1.40200	14019
1.40267	14013
1.40333	14007
1.40400	14001
1.40467	13994
1.40533	13988
1.40600	13982
1.40667	13976
1.40733	13969
1.40800	13963
1.40867	13956
1.40933	13950
1.41000	13944
1.41067	13937
1.41133	13931
1.41200	13924
1.41267	13918
1.41333	13912
1.41400	13905
1.41467	13899
1.41533	13892
1.41600	13886
1.41667	13880
1.41733	13873
1.41800	13867
1.41867	13861
1.41933	13855
1.42000	13848
1.42067	13842
1.42133	13836
1.42200	13829
1.42267	13823
1.42333	13817
1.42400	13811
1.42467	13804
1.42533	13798
1.42600	13792
1.42667	13786
1.42733	13779
1.42800	13773
1.42867	13767
1.42933	13761
1.43000	13754
1.43067	13748
1.43133	13742
1.43200	13736
1.43267	13730
1.43333	13724
1.43400	13718
1.43467	13712
1.43533	13706
1.43600	13700
1.43667	13694
1.43733	13688
1.43800	13682
1.43867	13676
1.43933	13671
1.44000	13665
1.44067	13660
1.44133	13654
1.44200	13649
1.44267	13644
1.44333	13639
1.44400	13633
1.44467	13628
1.44533	13623
1.44600	13618
1.44667	13613
1.44733	13608
1.44800	13603
1.44867	13599
1.44933	13594
1.45000	13589
1.45067	13584
1.45133	13579
1.45200	13575
1.45267	13570
1.45333	13565
1.45400	13561
1.45467	13556
1.45533	13551
1.45600	13547
1.45667	13542
1.45733	13538
1.45800	13533
1.45867	13528
1.45933	13524
1.46000	13519
1.46067	13515
1.46133	13510
1.46200	13506
1.46267	13501
1.46333	13497
1.46400	13493
1.46467	13488
1.46533	13484
1.46600	13479
1.46667	13474
1.46733	13470
1.46800	13465
1.46867	13460
1.46933	13455
1.47000	13450
1.47067	13445
1.47133	13440
1.47200	13435
1.47267	13430
1.47333	13425
1.47400	13419
1.47467	13414
1.47533	13409
1.47600	13404
1.47667	13399
1.47733	13393
1.47800	13388
1.47867	13383
1.47933	13378
1.48000	13372
1.48067	13367
1.48133	13362
1.48200	13356
1.48267	13351
1.48333	13345
1.48400	13340
1.48467	13334
1.48533	13329
1.48600	13324
1.48667	13319
1.48733	13313
1.48800	13308
1.48867	13303
1.48933	13298
1.49000	13293
1.49067	13288
1.49133	13283
1.49200	13278
1.49267	13273
1.49333	13268
1.49400	13263
1.49467	13258
1.49533	13253
1.49600	13249
1.49667	13244
1.49733	13239
1.49800	13234
1.49867	13229
1.49933	13224
1.50000	13220
1.50067	13215
1.50133	13210
1.50200	13206
1.50267	13201
1.50333	13197
1.50400	13192
1.50467	13188
1.50533	13183
1.50600	13179
1.50667	13175
1.50733	13170
1.50800	13166
1.50867	13162
1.50933	13158
1.51000	13153
1.51067	13149
1.51133	13145
1.51200	13141
1.51267	13137
1.51333	13133
1.51400	13129
1.51467	13125
1.51533	13121
1.51600	13117
1.51667	13113
1.51733	13109
1.51800	13105
1.51867	13101
1.51933	13097
1.52000	13093
1.52067	13088
1.52133	13084
1.52200	13080
1.52267	13076
1.52333	13072
1.52400	13068
1.52467	13064
1.52533	13059
1.52600	13055
1.52667	13051
1.52733	13047
1.52800	13043
1.52867	13039
1.52933	13034
1.53000	13030
1.53067	13026
1.53133	13022
1.53200	13018
1.53267	13013
1.53333	13009
1.53400	13005
1.53467	13000
1.53533	12996
1.53600	12992
1.53667	12987
1.53733	12983
1.53800	12979
1.53867	12975
1.53933	12970
1.54000	12966
1.54067	12962
1.54133	12957
1.54200	12953
1.54267	12949
1.54333	12945
1.54400	12940
1.54467	12936
1.54533	12932
1.54600	12928
1.54667	12924
1.54733	12920
1.54800	12916
1.54867	12912
1.54933	12908
1.55000	12904
1.55067	12900
1.55133	12896
1.55200	12892
1.55267	12888
1.55333	12884
1.55400	12880
1.55467	12876
1.55533	12872
1.55600	12868
1.55667	12864
1.55733	12860
1.55800	12856
1.55867	12852
1.55933	12848
1.56000	12844
1.56067	12840
1.56133	12836
1.56200	12832
1.56267	12828
1.56333	12824
1.56400	12820
1.56467	12816
1.56533	12812
1.56600	12808
1.56667	12804
1.56733	12801
1.56800	12797
1.56867	12793
1.56933	12789
1.57000	12785
1.57067	12781
1.57133	12777
1.57200	12773
1.57267	12770
1.57333	12766
1.57400	12762
1.57467	12758
1.57533	12754
1.57600	12750
1.57667	12747
1.57733	12743
1.57800	12739
1.57867	12735
1.57933	12731
1.58000	12727
1.58067	12724
1.58133	12720
1.58200	12716
1.58267	12713
1.58333	12709
1.58400	12705
1.58467	12702
1.58533	12698
1.58600	12695
1.58667	12692
1.58733	12688
1.58800	12685
1.58867	12682
1.58933	12678
1.59000	12675
1.59067	12672
1.59133	12669
1.59200	12665
1.59267	12662
1.59333	12659
1.59400	12656
1.59467	12652
1.59533	12649
1.59600	12646
1.59667	12643
1.59733	12639
1.59800	12636
1.59867	12633
1.59933	12629
1.60000	12626
1.60067	12622
1.60133	12619
1.60200	12615
1.60267	12612
1.60333	12608
1.60400	12605
1.60467	12602
1.60533	12598
1.60600	12595
1.60667	12591
1.60733	12588
1.60800	12584
1.60867	12581
1.60933	12578
1.61000	12574
1.61067	12571
1.61133	12567
1.61200	12564
1.61267	12561
1.61333	12558
1.61400	12554
1.61467	12551
1.61533	12548
1.61600	12545
1.61667	12542
1.61733	12539
1.61800	12536
1.61867	12532
1.61933	12529
1.62000	12526
1.62067	12523
1.62133	12520
1.62200	12517
1.62267	12514
1.62333	12511
1.62400	12508
1.62467	12505
1.62533	12502
1.62600	12499
1.62667	12496
1.62733	12493
1.62800	12490
1.62867	12487
1.62933	12485
1.63000	12482
1.63067	12479
1.63133	12476
1.63200	12473
1.63267	12471
1.63333	12468
1.63400	12465
1.63467	12462
1.63533	12459
1.63600	12457
1.63667	12454
1.63733	12451
1.63800	12449
1.63867	12446
1.63933	12444
1.64000	12441
1.64067	12438
1.64133	12436
1.64200	12434
1.64267	12431
1.64333	12429
1.64400	12426
1.64467	12424
1.64533	12422
1.64600	12420
1.64667	12418
1.64733	12416
1.64800	12414
1.64867	12412
1.64933	12410
1.65000	12408
1.65067	12406
1.65133	12404
1.65200	12402
1.65267	12401
1.65333	12399
1.65400	12398
1.65467	12396
1.65533	12394
1.65600	12393
1.65667	12391
1.65733	12390
1.65800	12388
1.65867	12387
1.65933	12385
1.66000	12383
1.66067	12382
1.66133	12380
1.66200	12379
1.66267	12378
1.66333	12376
1.66400	12375
1.66467	12373
1.66533	12372
1.66600	12371
1.66667	12369
1.66733	12368
1.66800	12366
1.66867	12365
1.66933	12363
1.67000	12361
1.67067	12360
1.67133	12358
1.67200	12356
1.67267	12354
1.67333	12352
1.67400	12350
1.67467	12349
1.67533	12346
1.67600	12344
1.67667	12342
1.67733	12340
1.67800	12338
1.67867	12336
1.67933	12333
1.68000	12331
1.68067	12329
1.68133	12326
1.68200	12324
1.68267	12321
1.68333	12319
1.68400	12316
1.68467	12314
1.68533	12311
1.68600	12308
1.68667	12306
1.68733	12303
1.68800	12300
1.68867	12297
1.68933	12294
1.69000	12291
1.69067	12288
1.69133	12285
1.69200	12282
1.69267	12279
1.69333	12275
1.69400	12272
1.69467	12269
1.69533	12266
1.69600	12262
1.69667	12259
1.69733	12256
1.69800	12252
1.69867	12249
1.69933	12245
1.70000	12242
1.70067	12239
1.70133	12235
1.70200	12231
1.70267	12228
1.70333	12224
1.70400	12220
1.70467	12217
1.70533	12213
1.70600	12209
1.70667	12206
1.70733	12202
1.70800	12198
1.70867	12195
1.70933	12191
1.71000	12188
1.71067	12184
1.71133	12181
1.71200	12177
1.71267	12174
1.71333	12171
1.71400	12168
1.71467	12165
1.71533	12163
1.71600	12160
1.71667	12158
1.71733	12157
1.71800	12156
1.71867	12156
1.71933	12157
1.72000	12159
1.72067	12162
1.72133	12167
1.72200	12174
1.72267	12183
1.72333	12195
1.72400	12212
1.72467	12232
1.72533	12258
1.72600	12291
1.72667	12331
1.72733	12381
1.72800	12442
1.72867	12516
1.72933	12605
1.73000	12712
1.73067	12840
1.73133	12994
1.73200	13176
1.73267	13391
1.73333	13644
1.73400	13941
1.73467	14288
1.73533	14691
1.73600	15158
1.73667	15698
1.73733	16320
1.73800	17034
1.73867	17853
1.73933	18788
1.74000	19851
1.74067	21057
1.74133	22421
1.74200	23958
1.74267	25684
1.74333	27617
1.74400	29773
1.74467	32171
1.74533	34829
1.74600	37765
1.74667	40999
1.74733	44550
1.74800	48440
1.74867	52687
1.74933	57312
1.75000	62335
1.75067	67779
1.75133	73663
1.75200	80011
1.75267	86847
1.75333	94194
1.75400	102075
1.75467	110513
1.75533	119527
1.75600	129134
1.75667	139348
1.75733	150182
1.75800	161647
1.75867	173754
1.75933	186515
1.76000	199933
1.76067	214014
1.76133	228762
1.76200	244179
1.76267	260271
1.76333	277043
1.76400	294498
1.76467	312636
1.76533	331453
1.76600	350943
1.76667	371092
1.76733	391885
1.76800	413299
1.76867	435304
1.76933	457860
1.77000	480930
1.77067	504469
1.77133	528431
1.77200	552764
1.77267	577410
1.77333	602302
1.77400	627365
1.77467	652522
1.77533	677689
1.77600	702770
1.77667	727661
1.77733	752248
1.77800	776409
1.77867	800016
1.77933	822941
1.78000	845059
1.78067	866251
1.78133	886405
1.78200	905421
1.78267	923208
1.78333	939692
1.78400	954811
1.78467	968519
1.78533	980782
1.78600	991580
1.78667	1000909
1.78733	1008774
1.78800	1015191
1.78867	1020191
1.78933	1023805
1.79000	1026076
1.79067	1027052
1.79133	1026786
1.79200	1025337
1.79267	1022762
1.79333	1019123
1.79400	1014484
1.79467	1008905
1.79533	1002449
1.79600	995176
1.79667	987146
1.79733	978417
1.79800	969044
1.79867	959082
1.79933	948581
1.80000	937592
1.80067	926161
1.80133	914333
1.80200	902150
1.80267	889654
1.80333	876881
1.80400	863867
1.80467	850648
1.80533	837254
1.80600	823715
1.80667	810059
1.80733	796313
1.80800	782501
1.80867	768647
1.80933	754770
1.81000	740893
1.81067	727032
1.81133	713206
1.81200	699429
1.81267	685718
1.81333	672086
1.81400	658545
1.81467	645107
1.81533	631782
1.81600	618581
1.81667	605512
1.81733	592583
1.81800	579802
1.81867	567175
1.81933	554709
1.82000	542407
1.82067	530276
1.82133	518319
1.82200	506540
1.82267	494942
1.82333	483528
1.82400	472299
1.82467	461258
1.82533	450406
1.82600	439744
1.82667	429273
1.82733	418993
1.82800	408905
1.82867	399008
1.82933	389301
1.83000	379785
1.83067	370458
1.83133	361320
1.83200	352370
1.83267	343605
1.83333	335025
1.83400	326627
1.83467	318411
1.83533	310374
1.83600	302515
1.83667	294830
1.83733	287318
1.83800	279978
1.83867	272805
1.83933	265799
1.84000	258956
1.84067	252274
1.84133	245751
1.84200	239383
1.84267	233169
1.84333	227106
1.84400	221191
1.84467	215422
1.84533	209795
1.84600	204309
1.84667	198960
1.84733	193746
1.84800	188664
1.84867	183713
1.84933	178888
1.85000	174188
1.85067	169609
1.85133	165150
1.85200	160808
1.85267	156579
1.85333	152463
1.85400	148455
1.85467	144554
1.85533	140757
1.85600	137063
1.85667	133468
1.85733	129970
1.85800	126566
1.85867	123256
1.85933	120036
1.86000	116904
1.86067	113859
1.86133	110897
1.86200	108017
1.86267	105217
1.86333	102495
1.86400	99849
1.86467	97276
1.86533	94776
1.86600	92346
1.86667	89984
1.86733	87689
1.86800	85458
1.86867	83291
1.86933	81185
1.87000	79139
1.87067	77151
1.87133	75220
1.87200	73345
1.87267	71523
1.87333	69753
1.87400	68034
1.87467	66365
1.87533	64744
1.87600	63169
1.87667	61641
1.87733	60156
1.87800	58716
1.87867	57317
1.87933	55959
1.88000	54641
1.88067	53362
1.88133	52120
1.88200	50915
1.88267	49746
1.88333	48612
1.88400	47511
1.88467	46443
1.88533	45408
1.88600	44403
1.88667	43428
1.88733	42483
1.88800	41566
1.88867	40677
1.88933	39815
1.89000	38979
1.89067	38168
1.89133	37382
1.89200	36620
1.89267	35881
1.89333	35165
1.89400	34470
1.89467	33797
1.89533	33144
1.89600	32512
1.89667	31899
1.89733	31304
1.89800	30728
1.89867	30170
1.89933	29629
1.90000	29104
1.90067	28596
1.90133	28103
1.90200	27626
1.90267	27163
1.90333	26715
1.90400	26280
1.90467	25859
1.90533	25450
1.90600	25054
1.90667	24671
1.90733	24299
1.90800	23939
1.90867	23589
1.90933	23251
1.91000	22923
1.91067	22604
1.91133	22296
1.91200	21997
1.91267	21707
1.91333	21426
1.91400	21154
1.91467	20890
1.91533	20633
1.91600	20385
1.91667	20144
1.91733	19911
1.91800	19684
1.91867	19464
1.91933	19251
1.92000	19045
1.92067	18844
1.92133	18650
1.92200	18461
1.92267	18278
1.92333	18101
1.92400	17928
1.92467	17761
1.92533	17598
1.92600	17440
1.92667	17287
1.92733	17139
1.92800	16994
1.92867	16854
1.92933	16718
1.93000	16586
1.93067	16457
1.93133	16333
1.93200	16212
1.93267	16094
1.93333	15980
1.93400	15869
1.93467	15761
1.93533	15656
1.93600	15554
1.93667	15455
1.93733	15359
1.93800	15265
1.93867	15175
1.93933	15086
1.94000	15000
1.94067	14917
1.94133	14835
1.94200	14756
1.94267	14679
1.94333	14605
1.94400	14532
1.94467	14461
1.94533	14392
1.94600	14325
1.94667	14260
1.94733	14197
1.94800	14135
1.94867	14075
1.94933	14016
1.95000	13959
1.95067	13904
1.95133	13850
1.95200	13798
1.95267	13747
1.95333	13697
1.95400	13648
1.95467	13601
1.95533	13555
1.95600	13510
1.95667	13466
1.95733	13423
1.95800	13381
1.95867	13341
1.95933	13301
1.96000	13262
1.96067	13224
1.96133	13187
1.96200	13151
1.96267	13116
1.96333	13081
1.96400	13047
1.96467	13015
1.96533	12982
1.96600	12951
1.96667	12920
1.96733	12891
1.96800	12861
1.96867	12832
1.96933	12804
1.97000	12777
1.97067	12750
1.97133	12723
1.97200	12698
1.97267	12672
1.97333	12647
1.97400	12623
1.97467	12599
1.97533	12576
1.97600	12553
1.97667	12531
1.97733	12509
1.97800	12488
1.97867	12467
1.97933	12447
1.98000	12426
1.98067	12407
1.98133	12387
1.98200	12368
1.98267	12349
1.98333	12331
1.98400	12313
1.98467	12295
1.98533	12278
1.98600	12261
1.98667	12244
1.98733	12227
1.98800	12211
1.98867	12195
1.98933	12179
1.99000	12164
1.99067	12148
1.99133	12133
1.99200	12119
1.99267	12104
1.99333	12090
1.99400	12075
1.99467	12061
1.99533	12048
1.99600	12034
1.99667	12020
1.99733	12007
1.99800	11994
1.99867	11980
1.99933	11968
2.00000	11955
2.00067	11942
2.00133	11930
2.00200	11917
2.00267	11905
2.00333	11893
2.00400	11881
2.00467	11869
2.00533	11858
2.00600	11846
2.00667	11835
2.00733	11824
2.00800	11812
2.00867	11801
2.00933	11790
2.01000	11779
2.01067	11769
2.01133	11758
2.01200	11747
2.01267	11737
2.01333	11726
2.01400	11716
2.01467	11706
2.01533	11696
2.01600	11686
2.01667	11676
2.01733	11666
2.01800	11656
2.01867	11646
2.01933	11637
2.02000	11627
2.02067	11618
2.02133	11608
2.02200	11599
2.02267	11590
2.02333	11581
2.02400	11572
2.02467	11563
2.02533	11555
2.02600	11546
2.02667	11537
2.02733	11528
2.02800	11519
2.02867	11511
2.02933	11502
2.03000	11493
2.03067	11485
2.03133	11476
2.03200	11468
2.03267	11459
2.03333	11451
2.03400	11443
2.03467	11434
2.03533	11426
2.03600	11418
2.03667	11409
2.03733	11401
2.03800	11393
2.03867	11385
2.03933	11377
2.04000	11369
2.04067	11361
2.04133	11353
2.04200	11345
2.04267	11338
2.04333	11330
2.04400	11322
2.04467	11315
2.04533	11307
2.04600	11300
2.04667	11293
2.04733	11285
2.04800	11278
2.04867	11271
2.04933	11264
2.05000	11256
2.05067	11249
2.05133	11242
2.05200	11235
2.05267	11228
2.05333	11221
2.05400	11215
2.05467	11208
2.05533	11201
2.05600	11195
2.05667	11188
2.05733	11182
2.05800	11175
2.05867	11169
2.05933	11163
2.06000	11156
2.06067	11150
2.06133	11144
2.06200	11138
2.06267	11131
2.06333	11125
2.06400	11119
2.06467	11113
2.06533	11107
2.06600	11101
2.06667	11095
2.06733	11089
2.06800	11083
2.06867	11077
2.06933	11071
2.07000	11065
2.07067	11059
2.07133	11053
2.07200	11047
2.07267	11041
2.07333	11036
2.07400	11030
2.07467	11024
2.07533	11018
2.07600	11012
2.07667	11007
2.07733	11001
2.07800	10995
2.07867	10990
2.07933	10984
2.08000	10979
2.08067	10973
2.08133	10968
2.08200	10962
2.08267	10957
2.08333	10951
2.08400	10946
2.08467	10941
2.08533	10935
2.08600	10930
2.08667	10925
2.08733	10919
2.08800	10914
2.08867	10909
2.08933	10903
2.09000	10898
2.09067	10893
2.09133	10887
2.09200	10882
2.09267	10876
2.09333	10871
2.09400	10866
2.09467	10860
2.09533	10855
2.09600	10850
2.09667	10844
2.09733	10839
2.09800	10834
2.09867	10828
2.09933	10823
2.10000	10818
2.10067	10813
2.10133	10808
2.10200	10802
2.10267	10797
2.10333	10792
2.10400	10787
2.10467	10782
2.10533	10777
2.10600	10773
2.10667	10768
2.10733	10763
2.10800	10758
2.10867	10753
2.10933	10748
2.11000	10744
2.11067	10739
2.11133	10734
2.11200	10729
2.11267	10724
2.11333	10719
2.11400	10715
2.11467	10710
2.11533	10705
2.11600	10700
2.11667	10695
2.11733	10690
2.11800	10685
2.11867	10680
2.11933	10675
2.12000	10670
2.12067	10665
2.12133	10660
2.12200	10656
2.12267	10651
2.12333	10646
2.12400	10641
2.12467	10636
2.12533	10631
2.12600	10626
2.12667	10621
2.12733	10616
2.12800	10611
2.12867	10607
2.12933	10602
2.13000	10598
2.13067	10593
2.13133	10589
2.13200	10584
2.13267	10580
2.13333	10575
2.13400	10571
2.13467	10567
2.13533	10562
2.13600	10558
2.13667	10554
2.13733	10549
2.13800	10545
2.13867	10541
2.13933	10537
2.14000	10532
2.14067	10528
2.14133	10524
2.14200	10519
2.14267	10515
2.14333	10511
2.14400	10506
2.14467	10502
2.14533	10498
2.14600	10493
2.14667	10489
2.14733	10484
2.14800	10480
2.14867	10476
2.14933	10471
2.15000	10467
2.15067	10463
2.15133	10459
2.15200	10454
2.15267	10450
2.15333	10446
2.15400	10442
2.15467	10438
2.15533	10434
2.15600	10430
2.15667	10426
2.15733	10422
2.15800	10419
2.15867	10415
2.15933	10411
2.16000	10407
2.16067	10404
2.16133	10400
2.16200	10396
2.16267	10393
2.16333	10389
2.16400	10386
2.16467	10382
2.16533	10379
2.16600	10375
2.16667	10372
2.16733	10368
2.16800	10365
2.16867	10361
2.16933	10358
2.17000	10354
2.17067	10351
2.17133	10347
2.17200	10344
2.17267	10340
2.17333	10337
2.17400	10334
2.17467	10330
2.17533	10327
2.17600	10323
2.17667	10320
2.17733	10316
2.17800	10313
2.17867	10310
2.17933	10306
2.18000	10303
2.18067	10299
2.18133	10296
2.18200	10293
2.18267	10290
2.18333	10286
2.18400	10283
2.18467	10280
2.18533	10277
2.18600	10274
2.18667	10271
2.18733	10268
2.18800	10265
2.18867	10262
2.18933	10259
2.19000	10256
2.19067	10253
2.19133	10251
2.19200	10248
2.19267	10245
2.19333	10242
2.19400	10239
2.19467	10236
2.19533	10233
2.19600	10230
2.19667	10228
2.19733	10225
2.19800	10222
2.19867	10220
2.19933	10217
2.20000	10215
2.20067	10212
2.20133	10210
2.20200	10208
2.20267	10206
2.20333	10204
2.20400	10201
2.20467	10199
2.20533	10198
2.20600	10196
2.20667	10194
2.20733	10192
2.20800	10191
2.20867	10190
2.20933	10188
2.21000	10187
2.21067	10186
2.21133	10185
2.21200	10184
2.21267	10184
2.21333	10183
2.21400	10183
2.21467	10182
2.21533	10182
2.21600	10182
2.21667	10182
2.21733	10182
2.21800	10182
2.21867	10183
2.21933	10183
2.22000	10184
2.22067	10184
2.22133	10185
2.22200	10186
2.22267	10187
2.22333	10188
2.22400	10189
2.22467	10190
2.22533	10191
2.22600	10192
2.22667	10193
2.22733	10193
2.22800	10194
2.22867	10195
2.22933	10195
2.23000	10196
2.23067	10196
2.23133	10197
2.23200	10197
2.23267	10197
2.23333	10197
2.23400	10197
2.23467	10197
2.23533	10196
2.23600	10196
2.23667	10195
2.23733	10194
2.23800	10193
2.23867	10192
2.23933	10190
2.24000	10189
2.24067	10187
2.24133	10186
2.24200	10184
2.24267	10182
2.24333	10180
2.24400	10178
2.24467	10176
2.24533	10174
2.24600	10171
2.24667	10169
2.24733	10167
2.24800	10164
2.24867	10162
2.24933	10159
2.25000	10156
2.25067	10154
2.25133	10151
2.25200	10148
2.25267	10145
2.25333	10142
2.25400	10140
2.25467	10137
2.25533	10134
2.25600	10130
2.25667	10127
2.25733	10124
2.25800	10121
2.25867	10118
2.25933	10115
2.26000	10111
2.26067	10108
2.26133	10105
2.26200	10102
2.26267	10099
2.26333	10096
2.26400	10093
2.26467	10089
2.26533	10086
2.26600	10083
2.26667	10080
2.26733	10077
2.26800	10074
2.26867	10070
2.26933	10067
2.27000	10064
2.27067	10060
2.27133	10057
2.27200	10054
2.27267	10050
2.27333	10047
2.27400	10043
2.27467	10040
2.27533	10036
2.27600	10033
2.27667	10029
2.27733	10025
2.27800	10022
2.27867	10018
2.27933	10014
2.28000	10010
2.28067	10007
2.28133	10003
2.28200	9999
2.28267	9995
2.28333	9991
2.28400	9987
2.28467	9983
2.28533	9980
2.28600	9976
2.28667	9972
2.28733	9969
2.28800	9965
2.28867	9962
2.28933	9958
2.29000	9955
2.29067	9951
2.29133	9948
2.29200	9944
2.29267	9941
2.29333	9937
2.29400	9934
2.29467	9931
2.29533	9927
2.29600	9924
2.29667	9921
2.29733	9918
2.29800	9914
2.29867	9911
2.29933	9908
2.30000	9905
2.30067	9902
2.30133	9898
2.30200	9895
2.30267	9892
2.30333	9890
2.30400	9887
2.30467	9884
2.30533	9881
2.30600	9878
2.30667	9876
2.30733	9873
2.30800	9871
2.30867	9868
2.30933	9866
2.31000	9864
2.31067	9861
2.31133	9859
2.31200	9857
2.31267	9855
2.31333	9853
2.31400	9851
2.31467	9849
2.31533	9847
2.31600	9845
2.31667	9843
2.31733	9841
2.31800	9839
2.31867	9837
2.31933	9835
2.32000	9834
2.32067	9832
2.32133	9830
2.32200	9829
2.32267	9827
2.32333	9825
2.32400	9824
2.32467	9822
2.32533	9821
2.32600	9819
2.32667	9817
2.32733	9816
2.32800	9814
2.32867	9813
2.32933	9812
2.33000	9810
2.33067	9809
2.33133	9807
2.33200	9806
2.33267	9805
2.33333	9804
2.33400	9802
2.33467	9801
2.33533	9800
2.33600	9799
2.33667	9798
2.33733	9797
2.33800	9796
2.33867	9795
2.33933	9794
2.34000	9793
2.34067	9792
2.34133	9792
2.34200	9791
2.34267	9790
2.34333	9789
2.34400	9788
2.34467	9788
2.34533	9787
2.34600	9786
2.34667	9785
2.34733	9784
2.34800	9784
2.34867	9783
2.34933	9782
2.35000	9781
2.35067	9780
2.35133	9779
2.35200	9779
2.35267	9778
2.35333	9777
2.35400	9776
2.35467	9775
2.35533	9774
2.35600	9774
2.35667	9773
2.35733	9772
2.35800	9772
2.35867	9771
2.35933	9770
2.36000	9770
2.36067	9769
2.36133	9769
2.36200	9768
2.36267	9767
2.36333	9767
2.36400	9766
2.36467	9766
2.36533	9765
2.36600	9765
2.36667	9764
2.36733	9764
2.36800	9763
2.36867	9763
2.36933	9762
2.37000	9761
2.37067	9761
2.37133	9760
2.37200	9759
2.37267	9759
2.37333	9758
2.37400	9757
2.37467	9756
2.37533	9755
2.37600	9754
2.37667	9753
2.37733	9752
2.37800	9751
2.37867	9750
2.37933	9749
2.38000	9748
2.38067	9747
2.38133	9745
2.38200	9744
2.38267	9743
2.38333	9742
2.38400	9741
2.38467	9739
2.38533	9738
2.38600	9737
2.38667	9736
2.38733	9734
2.38800	9733
2.38867	9732
2.38933	9731
2.39000	9729
2.39067	9728
2.39133	9726
2.39200	9725
2.39267	9723
2.39333	9722
2.39400	9720
2.39467	9719
2.39533	9717
2.39600	9716
2.39667	9714
2.39733	9712
2.39800	9711
2.39867	9709
2.39933	9708
2.40000	9706
2.40067	9705
2.40133	9703
2.40200	9702
2.40267	9700
2.40333	9699
2.40400	9698
2.40467	9697
2.40533	9695
2.40600	9694
2.40667	9693
2.40733	9692
2.40800	9691
2.40867	9689
2.40933	9688
2.41000	9687
2.41067	9686
2.41133	9685
2.41200	9684
2.41267	9683
2.41333	9682
2.41400	9681
2.41467	9679
2.41533	9678
2.41600	9677
2.41667	9676
2.41733	9675
2.41800	9674
2.41867	9672
2.41933	9671
2.42000	9670
2.42067	9669
2.42133	9668
2.42200	9667
2.42267	9666
2.42333	9664
2.42400	9663
2.42467	9662
2.42533	9661
2.42600	9660
2.42667	9659
2.42733	9658
2.42800	9657
2.42867	9655
2.42933	9654
2.43000	9653
2.43067	9651
2.43133	9650
2.43200	9649
2.43267	9647
2.43333	9646
2.43400	9644
2.43467	9643
2.43533	9641
2.43600	9639
2.43667	9638
2.43733	9636
2.43800	9634
2.43867	9632
2.43933	9630
2.44000	9628
2.44067	9626
2.44133	9624
2.44200	9622
2.44267	9620
2.44333	9618
2.44400	9615
2.44467	9613
2.44533	9610
2.44600	9607
2.44667	9605
2.44733	9602
2.44800	9599
2.44867	9596
2.44933	9593
2.45000	9590
2.45067	9587
2.45133	9584
2.45200	9581
2.45267	9578
2.45333	9575
2.45400	9571
2.45467	9568
2.45533	9565
2.45600	9561
2.45667	9558
2.45733	9555
2.45800	9551
2.45867	9548
2.45933	9545
2.46000	9541
2.46067	9538
2.46133	9535
2.46200	9531
2.46267	9528
2.46333	9524
2.46400	9521
2.46467	9517
2.46533	9514
2.46600	9510
2.46667	9507
2.46733	9503
2.46800	9500
2.46867	9496
2.46933	9492
2.47000	9489
2.47067	9485
2.47133	9481
2.47200	9477
2.47267	9474
2.47333	9470
2.47400	9466
2.47467	9462
2.47533	9458
2.47600	9455
2.47667	9451
2.47733	9447
2.47800	9443
2.47867	9439
2.47933	9435
2.48000	9432
2.48067	9428
2.48133	9424
2.48200	9421
2.48267	9417
2.48333	9413
2.48400	9410
2.48467	9406
2.48533	9403
2.48600	9400
2.48667	9396
2.48733	9393
2.48800	9389
2.48867	9386
2.48933	9383
2.49000	9379
2.49067	9376
2.49133	9373
2.49200	9369
2.49267	9366
2.49333	9363
2.49400	9360
2.49467	9357
2.49533	9353
2.49600	9350
2.49667	9347
2.49733	9344
2.49800	9341
2.49867	9338
2.49933	9335
2.50000	9332
2.50067	9329
2.50133	9326
2.50200	9323
2.50267	9320
2.50333	9317
2.50400	9314
2.50467	9311
2.50533	9308
2.50600	9305
2.50667	9302
2.50733	9299
2.50800	9297
2.50867	9294
2.50933	9291
2.51000	9288
2.51067	9286
2.51133	9283
2.51200	9280
2.51267	9277
2.51333	9274
2.51400	9271
2.51467	9269
2.51533	9266
2.51600	9263
2.51667	9260
2.51733	9257
2.51800	9254
2.51867	9252
2.51933	9249
2.52000	9246
2.52067	9243
2.52133	9240
2.52200	9237
2.52267	9235
2.52333	9232
2.52400	9229
2.52467	9226
2.52533	9223
2.52600	9220
2.52667	9217
2.52733	9214
2.52800	9211
2.52867	9209
2.52933	9206
2.53000	9203
2.53067	9200
2.53133	9197
2.53200	9193
2.53267	9190
2.53333	9187
2.53400	9184
2.53467	9181
2.53533	9178
2.53600	9175
2.53667	9171
2.53733	9168
2.53800	9165
2.53867	9162
2.53933	9158
2.54000	9155
2.54067	9152
2.54133	9148
2.54200	9145
2.54267	9142
2.54333	9138
2.54400	9135
2.54467	9132
2.54533	9128
2.54600	9125
2.54667	9121
2.54733	9118
2.54800	9114
2.54867	9111
2.54933	9107
2.55000	9104
2.55067	9100
2.55133	9097
2.55200	9093
2.55267	9090
2.55333	9086
2.55400	9083
2.55467	9080
2.55533	9076
2.55600	9073
2.55667	9069
2.55733	9066
2.55800	9062
2.55867	9059
2.55933	9056
2.56000	9052
2.56067	9049
2.56133	9045
2.56200	9042
2.56267	9039
2.56333	9036
2.56400	9032
2.56467	9029
2.56533	9026
2.56600	9023
2.56667	9020
2.56733	9017
2.56800	9014
2.56867	9011
2.56933	9008
2.57000	9005
2.57067	9002
2.57133	8999
2.57200	8996
2.57267	8993
2.57333	8990
2.57400	8987
2.57467	8985
2.57533	8982
2.57600	8979
2.57667	8976
2.57733	8973
2.57800	8970
2.57867	8967
2.57933	8964
2.58000	8962
2.58067	8959
2.58133	8956
2.58200	8954
2.58267	8951
2.58333	8948
2.58400	8946
2.58467	8943
2.58533	8941
2.58600	8938
2.58667	8936
2.58733	8934
2.58800	8931
2.58867	8929
2.58933	8927
2.59000	8925
2.59067	8923
2.59133	8921
2.59200	8919
2.59267	8917
2.59333	8914
2.59400	8912
2.59467	8910
2.59533	8908
2.59600	8906
2.59667	8904
2.59733	8902
2.59800	8900
2.59867	8898
2.59933	8896
2.60000	8894
2.60067	8892
2.60133	8890
2.60200	8888
2.60267	8886
2.60333	8884
2.60400	8883
2.60467	8881
2.60533	8879
2.60600	8877
2.60667	8875
2.60733	8873
2.60800	8871
2.60867	8869
2.60933	8867
2.61000	8866
2.61067	8864
2.61133	8862
2.61200	8860
2.61267	8858
2.61333	8856
2.61400	8854
2.61467	8852
2.61533	8850
2.61600	8848
2.61667	8846
2.61733	8844
2.61800	8842
2.61867	8840
2.61933	8838
2.62000	8836
2.62067	8834
2.62133	8832
2.62200	8830
2.62267	8827
2.62333	8825
2.62400	8823
2.62467	8821
2.62533	8819
2.62600	8816
2.62667	8814
2.62733	8812
2.62800	8810
2.62867	8807
2.62933	8805
2.63000	8803
2.63067	8801
2.63133	8798
2.63200	8796
2.63267	8794
2.63333	8791
2.63400	8789
2.63467	8787
2.63533	8784
2.63600	8782
2.63667	8780
2.63733	8778
2.63800	8776
2.63867	8773
2.63933	8771
2.64000	8769
2.64067	8767
2.64133	8765
2.64200	8763
2.64267	8761
2.64333	8759
2.64400	8757
2.64467	8755
2.64533	8753
2.64600	8751
2.64667	8749
2.64733	8747
2.64800	8745
2.64867	8743
2.64933	8741
2.65000	8739
2.65067	8737
2.65133	8735
2.65200	8732
2.65267	8730
2.65333	8728
2.65400	8726
2.65467	8724
2.65533	8722
2.65600	8720
2.65667	8718
2.65733	8716
2.65800	8714
2.65867	8711
2.65933	8709
2.66000	8707
2.66067	8705
2.66133	8703
2.66200	8700
2.66267	8698
2.66333	8696
2.66400	8694
2.66467	8692
2.66533	8690
2.66600	8687
2.66667	8685
2.66733	8683
2.66800	8681
2.66867	8678
2.66933	8676
2.67000	8674
2.67067	8671
2.67133	8669
2.67200	8667
2.67267	8664
2.67333	8662
2.67400	8659
2.67467	8657
2.67533	8654
2.67600	8652
2.67667	8649
2.67733	8647
2.67800	8644
2.67867	8642
2.67933	8639
2.68000	8637
2.68067	8635
2.68133	8632
2.68200	8630
2.68267	8627
2.68333	8625
2.68400	8622
2.68467	8620
2.68533	8617
2.68600	8615
2.68667	8612
2.68733	8610
2.68800	8607
2.68867	8605
2.68933	8602
2.69000	8600
2.69067	8597
2.69133	8595
2.69200	8592
2.69267	8590
2.69333	8587
2.69400	8585
2.69467	8582
2.69533	8580
2.69600	8577
2.69667	8575
2.69733	8572
2.69800	8570
2.69867	8568
2.69933	8565
2.70000	8563
2.70067	8561
2.70133	8558
2.70200	8556
2.70267	8554
2.70333	8551
2.70400	8549
2.70467	8547
2.70533	8545
2.70600	8542
2.70667	8540
2.70733	8538
2.70800	8535
2.70867	8533
2.70933	8531
2.71000	8529
2.71067	8527
2.71133	8524
2.71200	8522
2.71267	8520
2.71333	8518
2.71400	8516
2.71467	8514
2.71533	8512
2.71600	8509
2.71667	8507
2.71733	8505
2.71800	8503
2.71867	8501
2.71933	8499
2.72000	8497
2.72067	8495
2.72133	8493
2.72200	8492
2.72267	8490
2.72333	8488
2.72400	8486
2.72467	8484
2.72533	8483
2.72600	8481
2.72667	8479
2.72733	8477
2.72800	8476
2.72867	8474
2.72933	8472
2.73000	8471
2.73067	8469
2.73133	8467
2.73200	8465
2.73267	8464
2.73333	8462
2.73400	8460
2.73467	8459
2.73533	8457
2.73600	8455
2.73667	8454
2.73733	8452
2.73800	8451
2.73867	8449
2.73933	8447
2.74000	8446
2.74067	8444
2.74133	8443
2.74200	8441
2.74267	8440
2.74333	8438
2.74400	8437
2.74467	8435
2.74533	8434
2.74600	8432
2.74667	8431
2.74733	8429
2.74800	8428
2.74867	8427
2.74933	8425
2.75000	8424
2.75067	8423
2.75133	8421
2.75200	8420
2.75267	8419
2.75333	8418
2.75400	8417
2.75467	8416
2.75533	8415
2.75600	8413
2.75667	8412
2.75733	8411
2.75800	8410
2.75867	8409
2.75933	8408
2.76000	8408
2.76067	8407
2.76133	8406
2.76200	8405
2.76267	8404
2.76333	8404
2.76400	8403
2.76467	8402
2.76533	8402
2.76600	8401
2.76667	8401
2.76733	8400
2.76800	8400
2.76867	8400
2.76933	8399
2.77000	8399
2.77067	8399
2.77133	8399
2.77200	8399
2.77267	8399
2.77333	8399
2.77400	8400
2.77467	8400
2.77533	8400
2.77600	8401
2.77667	8402
2.77733	8403
2.77800	8404
2.77867	8405
2.77933	8406
2.78000	8407
2.78067	8409
2.78133	8410
2.78200	8412
2.78267	8414
2.78333	8416
2.78400	8418
2.78467	8420
2.78533	8422
2.78600	8425
2.78667	8428
2.78733	8431
2.78800	8434
2.78867	8437
2.78933	8440
2.79000	8444
2.79067	8447
2.79133	8451
2.79200	8455
2.79267	8460
2.79333	8464
2.79400	8469
2.79467	8474
2.79533	8479
2.79600	8484
2.79667	8489
2.79733	8495
2.79800	8501
2.79867	8507
2.79933	8513
2.80000	8519
2.80067	8526
2.80133	8532
2.80200	8539
2.80267	8546
2.80333	8554
2.80400	8561
2.80467	8568
2.80533	8576
2.80600	8584
2.80667	8592
2.80733	8600
2.80800	8608
2.80867	8616
2.80933	8625
2.81000	8633
2.81067	8642
2.81133	8650
2.81200	8659
2.81267	8667
2.81333	8676
2.81400	8684
2.81467	8693
2.81533	8701
2.81600	8709
2.81667	8718
2.81733	8726
2.81800	8734
2.81867	8742
2.81933	8750
2.82000	8758
2.82067	8765
2.82133	8773
2.82200	8780
2.82267	8787
2.82333	8794
2.82400	8800
2.82467	8807
2.82533	8813
2.82600	8819
2.82667	8824
2.82733	8829
2.82800	8834
2.82867	8838
2.82933	8842
2.83000	8846
2.83067	8850
2.83133	8853
2.83200	8856
2.83267	8858
2.83333	8860
2.83400	8862
2.83467	8864
2.83533	8865
2.83600	8866
2.83667	8866
2.83733	8866
2.83800	8866
2.83867	8866
2.83933	8865
2.84000	8864
2.84067	8862
2.84133	8861
2.84200	8859
2.84267	8856
2.84333	8854
2.84400	8851
2.84467	8848
2.84533	8844
2.84600	8841
2.84667	8837
2.84733	8832
2.84800	8828
2.84867	8824
2.84933	8819
2.85000	8814
2.85067	8809
2.85133	8803
2.85200	8798
2.85267	8792
2.85333	8786
2.85400	8780
2.85467	8774
2.85533	8768
2.85600	8762
2.85667	8756
2.85733	8749
2.85800	8743
2.85867	8736
2.85933	8729
2.86000	8723
2.86067	8716
2.86133	8709
2.86200	8703
2.86267	8696
2.86333	8689
2.86400	8682
2.86467	8675
2.86533	8669
2.86600	8662
2.86667	8656
2.86733	8649
2.86800	8643
2.86867	8636
2.86933	8630
2.87000	8624
2.87067	8618
2.87133	8612
2.87200	8606
2.87267	8600
2.87333	8595
2.87400	8589
2.87467	8583
2.87533	8578
2.87600	8573
2.87667	8567
2.87733	8562
2.87800	8557
2.87867	8552
2.87933	8547
2.88000	8543
2.88067	8538
2.88133	8534
2.88200	8530
2.88267	8526
2.88333	8522
2.88400	8519
2.88467	8515
2.88533	8512
2.88600	8509
2.88667	8506
2.88733	8503
2.88800	8501
2.88867	8498
2.88933	8496
2.89000	8494
2.89067	8492
2.89133	8490
2.89200	8489
2.89267	8488
2.89333	8487
2.89400	8486
2.89467	8485
2.89533	8485
2.89600	8484
2.89667	8484
2.89733	8484
2.89800	8484
2.89867	8484
2.89933	8484
2.90000	8484
2.90067	8485
2.90133	8486
2.90200	8486
2.90267	8487
2.90333	8488
2.90400	8489
2.90467	8490
2.90533	8491
2.90600	8492
2.90667	8493
2.90733	8494
2.90800	8495
2.90867	8495
2.90933	8496
2.91000	8497
2.91067	8498
2.91133	8499
2.91200	8499
2.91267	8500
2.91333	8500
2.91400	8500
2.91467	8501
2.91533	8501
2.91600	8501
2.91667	8500
2.91733	8500
2.91800	8499
2.91867	8499
2.91933	8498
2.92000	8497
2.92067	8495
2.92133	8494
2.92200	8492
2.92267	8491
2.92333	8488
2.92400	8486
2.92467	8484
2.92533	8481
2.92600	8478
2.92667	8475
2.92733	8472
2.92800	8469
2.92867	8465
2.92933	8461
2.93000	8457
2.93067	8452
2.93133	8448
2.93200	8443
2.93267	8438
2.93333	8433
2.93400	8428
2.93467	8422
2.93533	8417
2.93600	8411
2.93667	8405
2.93733	8399
2.93800	8393
2.93867	8386
2.93933	8380
2.94000	8373
2.94067	8366
2.94133	8359
2.94200	8352
2.94267	8345
2.94333	8338
2.94400	8330
2.94467	8323
2.94533	8315
2.94600	8308
2.94667	8300
2.94733	8293
2.94800	8285
2.94867	8277
2.94933	8270
2.95000	8262
2.95067	8254
2.95133	8246
2.95200	8239
2.95267	8231
2.95333	8223
2.95400	8215
2.95467	8208
2.95533	8200
2.95600	8193
2.95667	8185
2.95733	8177
2.95800	8170
2.95867	8162
2.95933	8155
2.96000	8148
2.96067	8140
2.96133	8133
2.96200	8126
2.96267	8118
2.96333	8111
2.96400	8104
2.96467	8097
2.96533	8091
2.96600	8084
2.96667	8077
2.96733	8071
2.96800	8064
2.96867	8058
2.96933	8051
2.97000	8045
2.97067	8039
2.97133	8033
2.97200	8027
2.97267	8021
2.97333	8016
2.97400	8010
2.97467	8004
2.97533	7998
2.97600	7993
2.97667	7987
2.97733	7981
2.97800	7976
2.97867	7970
2.97933	7965
2.98000	7960
2.98067	7954
2.98133	7949
2.98200	7944
2.98267	7939
2.98333	7934
2.98400	7929
2.98467	7924
2.98533	7919
2.98600	7914
2.98667	7909
2.98733	7905
2.98800	7900
2.98867	7895
2.98933	7891
2.99000	7886
2.99067	7882
2.99133	7877
2.99200	7873
2.99267	7868
2.99333	7864
2.99400	7860
2.99467	7855
2.99533	7851
2.99600	7847
2.99667	7842
2.99733	7838
2.99800	7834
2.99867	7830
2.99933	7826
3.00000	7822
3.00067	7818
3.00133	7814
3.00200	7810
3.00267	7806
3.00333	7802
3.00400	7798
3.00467	7794
3.00533	7791
3.00600	7787
3.00667	7783
3.00733	7780
3.00800	7776
3.00867	7772
3.00933	7769
3.01000	7765
3.01067	7761
3.01133	7758
3.01200	7754
3.01267	7751
3.01333	7747
3.01400	7744
3.01467	7740
3.01533	7737
3.01600	7734
3.01667	7730
3.01733	7727
3.01800	7723
3.01867	7720
3.01933	7717
3.02000	7714
3.02067	7710
3.02133	7707
3.02200	7704
3.02267	7701
3.02333	7698
3.02400	7694
3.02467	7691
3.02533	7688
3.02600	7685
3.02667	7683
3.02733	7680
3.02800	7677
3.02867	7674
3.02933	7671
3.03000	7668
3.03067	7666
3.03133	7663
3.03200	7660
3.03267	7657
3.03333	7655
3.03400	7652
3.03467	7649
3.03533	7646
3.03600	7644
3.03667	7641
3.03733	7638
3.03800	7636
3.03867	7633
3.03933	7631
3.04000	7628
3.04067	7625
3.04133	7623
3.04200	7621
3.04267	7618
3.04333	7616
3.04400	7613
3.04467	7611
3.04533	7609
3.04600	7606
3.04667	7604
3.04733	7602
3.04800	7600
3.04867	7598
3.04933	7596
3.05000	7594
3.05067	7592
3.05133	7590
3.05200	7588
3.05267	7586
3.05333	7584
3.05400	7582
3.05467	7580
3.05533	7578
3.05600	7577
3.05667	7575
3.05733	7573
3.05800	7572
3.05867	7570
3.05933	7568
3.06000	7567
3.06067	7566
3.06133	7564
3.06200	7563
3.06267	7561
3.06333	7560
3.06400	7559
3.06467	7557
3.06533	7556
3.06600	7554
3.06667	7553
3.06733	7552
3.06800	7550
3.06867	7549
3.06933	7548
3.07000	7547
3.07067	7545
3.07133	7544
3.07200	7543
3.07267	7542
3.07333	7541
3.07400	7540
3.07467	7539
3.07533	7537
3.07600	7536
3.07667	7535
3.07733	7534
3.07800	7533
3.07867	7532
3.07933	7531
3.08000	7530
3.08067	7529
3.08133	7528
3.08200	7527
3.08267	7526
3.08333	7525
3.08400	7524
3.08467	7523
3.08533	7522
3.08600	7521
3.08667	7520
3.08733	7518
3.08800	7517
3.08867	7516
3.08933	7515
3.09000	7513
3.09067	7512
3.09133	7511
3.09200	7509
3.09267	7508
3.09333	7506
3.09400	7505
3.09467	7504
3.09533	7502
3.09600	7500
3.09667	7499
3.09733	7497
3.09800	7495
3.09867	7494
3.09933	7492
3.10000	7490
3.10067	7488
3.10133	7486
3.10200	7484
3.10267	7482
3.10333	7480
3.10400	7478
3.10467	7476
3.10533	7474
3.10600	7472
3.10667	7470
3.10733	7467
3.10800	7465
3.10867	7463
3.10933	7461
3.11000	7458
3.11067	7456
3.11133	7453
3.11200	7451
3.11267	7448
3.11333	7445
3.11400	7443
3.11467	7440
3.11533	7437
3.11600	7435
3.11667	7432
3.11733	7429
3.11800	7426
3.11867	7424
3.11933	7421
3.12000	7418
3.12067	7415
3.12133	7412
3.12200	7409
3.12267	7406
3.12333	7403
3.12400	7400
3.12467	7397
3.12533	7394
3.12600	7391
3.12667	7388
3.12733	7385
3.12800	7382
3.12867	7379
3.12933	7376
3.13000	7373
3.13067	7370
3.13133	7367
3.13200	7364
3.13267	7361
3.13333	7358
3.13400	7355
3.13467	7352
3.13533	7349
3.13600	7346
3.13667	7343
3.13733	7340
3.13800	7337
3.13867	7334
3.13933	7331
3.14000	7328
3.14067	7325
3.14133	7322
3.14200	7319
3.14267	7316
3.14333	7313
3.14400	7310
3.14467	7308
3.14533	7305
3.14600	7302
3.14667	7300
3.14733	7297
3.14800	7294
3.14867	7292
3.14933	7289
3.15000	7287
3.15067	7284
3.15133	7282
3.15200	7279
3.15267	7277
3.15333	7274
3.15400	7272
3.15467	7270
3.15533	7267
3.15600	7265
3.15667	7263
3.15733	7261
3.15800	7258
3.15867	7256
3.15933	7254
3.16000	7252
3.16067	7250
3.16133	7248
3.16200	7245
3.16267	7243
3.16333	7241
3.16400	7239
3.16467	7237
3.16533	7235
3.16600	7233
3.16667	7231
3.16733	7229
3.16800	7227
3.16867	7225
3.16933	7223
3.17000	7221
3.17067	7220
3.17133	7218
3.17200	7216
3.17267	7214
3.17333	7212
3.17400	7210
3.17467	7208
3.17533	7206
3.17600	7205
3.17667	7203
3.17733	7201
3.17800	7199
3.17867	7197
3.17933	7196
3.18000	7194
3.18067	7192
3.18133	7191
3.18200	7189
3.18267	7187
3.18333	7186
3.18400	7184
3.18467	7182
3.18533	7181
3.18600	7179
3.18667	7178
3.18733	7176
3.18800	7175
3.18867	7173
3.18933	7172
3.19000	7171
3.19067	7169
3.19133	7168
3.19200	7167
3.19267	7165
3.19333	7164
3.19400	7163
3.19467	7162
3.19533	7160
3.19600	7159
3.19667	7158
3.19733	7156
3.19800	7155
3.19867	7154
3.19933	7152
3.20000	7151
3.20067	7149
3.20133	7148
3.20200	7147
3.20267	7145
3.20333	7144
3.20400	7143
3.20467	7141
3.20533	7140
3.20600	7139
3.20667	7137
3.20733	7136
3.20800	7135
3.20867	7133
3.20933	7132
3.21000	7130
3.21067	7129
3.21133	7128
3.21200	7126
3.21267	7125
3.21333	7124
3.21400	7123
3.21467	7121
3.21533	7120
3.21600	7119
3.21667	7117
3.21733	7116
3.21800	7115
3.21867	7113
3.21933	7112
3.22000	7110
3.22067	7108
3.22133	7107
3.22200	7105
3.22267	7104
3.22333	7102
3.22400	7101
3.22467	7099
3.22533	7097
3.22600	7096
3.22667	7094
3.22733	7092
3.22800	7091
3.22867	7089
3.22933	7087
3.23000	7086
3.23067	7084
3.23133	7083
3.23200	7081
3.23267	7080
3.23333	7078
3.23400	7076
3.23467	7075
3.23533	7073
3.23600	7072
3.23667	7070
3.23733	7068
3.23800	7067
3.23867	7065
3.23933	7063
3.24000	7062
3.24067	7060
3.24133	7058
3.24200	7056
3.24267	7054
3.24333	7052
3.24400	7050
3.24467	7048
3.24533	7047
3.24600	7045
3.24667	7043
3.24733	7041
3.24800	7039
3.24867	7037
3.24933	7035
3.25000	7033
3.25067	7031
3.25133	7029
3.25200	7027
3.25267	7025
3.25333	7023
3.25400	7021
3.25467	7019
3.25533	7017
3.25600	7015
3.25667	7013
3.25733	7011
3.25800	7009
3.25867	7007
3.25933	7005
3.26000	7003
3.26067	7001
3.26133	6999
3.26200	6997
3.26267	6995
3.26333	6993
3.26400	6991
3.26467	6990
3.26533	6988
3.26600	6986
3.26667	6984
3.26733	6982
3.26800	6981
3.26867	6979
3.26933	6977
3.27000	6975
3.27067	6974
3.27133	6972
3.27200	6970
3.27267	6969
3.27333	6967
3.27400	6966
3.27467	6964
3.27533	6962
3.27600	6961
3.27667	6959
3.27733	6958
3.27800	6956
3.27867	6955
3.27933	6953
3.28000	6952
3.28067	6951
3.28133	6949
3.28200	6948
3.28267	6946
3.28333	6945
3.28400	6943
3.28467	6942
3.28533	6941
3.28600	6939
3.28667	6938
3.28733	6937
3.28800	6935
3.28867	6934
3.28933	6933
3.29000	6931
3.29067	6930
3.29133	6929
3.29200	6928
3.29267	6927
3.29333	6926
3.29400	6924
3.29467	6923
3.29533	6922
3.29600	6921
3.29667	6920
3.29733	6919
3.29800	6918
3.29867	6917
3.29933	6916
3.30000	6915
3.30067	6914
3.30133	6913
3.30200	6912
3.30267	6911
3.30333	6910
3.30400	6909
3.30467	6909
3.30533	6908
3.30600	6907
3.30667	6906
3.30733	6905
3.30800	6904
3.30867	6903
3.30933	6903
3.31000	6902
3.31067	6901
3.31133	6900
3.31200	6899
3.31267	6899
3.31333	6898
3.31400	6897
3.31467	6897
3.31533	6896
3.31600	6895
3.31667	6895
3.31733	6894
3.31800	6893
3.31867	6892
3.31933	6892
3.32000	6891
3.32067	6890
3.32133	6889
3.32200	6888
3.32267	6888
3.32333	6887
3.32400	6886
3.32467	6885
3.32533	6884
3.32600	6883
3.32667	6882
3.32733	6881
3.32800	6880
3.32867	6879
3.32933	6878
3.33000	6877
3.33067	6876
3.33133	6875
3.33200	6874
3.33267	6872
3.33333	6871
3.33400	6870
3.33467	6869
3.33533	6868
3.33600	6867
3.33667	6866
3.33733	6865
3.33800	6864
3.33867	6863
3.33933	6862
3.34000	6861
3.34067	6859
3.34133	6858
3.34200	6857
3.34267	6856
3.34333	6855
3.34400	6854
3.34467	6852
3.34533	6851
3.34600	6850
3.34667	6849
3.34733	6848
3.34800	6846
3.34867	6845
3.34933	6844
3.35000	6843
3.35067	6842
3.35133	6841
3.35200	6839
3.35267	6838
3.35333	6837
3.35400	6836
3.35467	6835
3.35533	6833
3.35600	6832
3.35667	6831
3.35733	6830
3.35800	6829
3.35867	6827
3.35933	6826
3.36000	6825
3.36067	6824
3.36133	6822
3.36200	6821
3.36267	6820
3.36333	6819
3.36400	6817
3.36467	6816
3.36533	6815
3.36600	6814
3.36667	6813
3.36733	6812
3.36800	6811
3.36867	6810
3.36933	6808
3.37000	6807
3.37067	6806
3.37133	6805
3.37200	6804
3.37267	6803
3.37333	6802
3.37400	6801
3.37467	6800
3.37533	6799
3.37600	6798
3.37667	6797
3.37733	6796
3.37800	6795
3.37867	6794
3.37933	6793
3.38000	6792
3.38067	6791
3.38133	6790
3.38200	6789
3.38267	6788
3.38333	6787
3.38400	6787
3.38467	6786
3.38533	6785
3.38600	6784
3.38667	6783
3.38733	6783
3.38800	6782
3.38867	6781
3.38933	6780
3.39000	6780
3.39067	6779
3.39133	6778
3.39200	6778
3.39267	6777
3.39333	6776
3.39400	6776
3.39467	6775
3.39533	6774
3.39600	6774
3.39667	6773
3.39733	6772
3.39800	6772
3.39867	6771
3.39933	6770
3.40000	6770
3.40067	6769
3.40133	6769
3.40200	6768
3.40267	6768
3.40333	6767
3.40400	6767
3.40467	6767
3.40533	6766
3.40600	6766
3.40667	6766
3.40733	6765
3.40800	6765
3.40867	6765
3.40933	6765
3.41000	6765
3.41067	6765
3.41133	6764
3.41200	6764
3.41267	6764
3.41333	6764
3.41400	6764
3.41467	6765
3.41533	6765
3.41600	6765
3.41667	6765
3.41733	6765
3.41800	6765
3.41867	6765
3.41933	6766
3.42000	6766
3.42067	6766
3.42133	6766
3.42200	6767
3.42267	6767
3.42333	6768
3.42400	6768
3.42467	6768
3.42533	6769
3.42600	6770
3.42667	6770
3.42733	6771
3.42800	6771
3.42867	6772
3.42933	6773
3.43000	6773
3.43067	6774
3.43133	6775
3.43200	6776
3.43267	6776
3.43333	6777
3.43400	6778
3.43467	6779
3.43533	6780
3.43600	6781
3.43667	6781
3.43733	6782
3.43800	6783
3.43867	6784
3.43933	6785
3.44000	6786
3.44067	6787
3.44133	6788
3.44200	6789
3.44267	6790
3.44333	6791
3.44400	6793
3.44467	6794
3.44533	6795
3.44600	6796
3.44667	6797
3.44733	6799
3.44800	6800
3.44867	6801
3.44933	6803
3.45000	6804
3.45067	6806
3.45133	6807
3.45200	6809
3.45267	6810
3.45333	6812
3.45400	6814
3.45467	6815
3.45533	6817
3.45600	6819
3.45667	6820
3.45733	6822
3.45800	6824
3.45867	6825
3.45933	6827
3.46000	6829
3.46067	6831
3.46133	6833
3.46200	6834
3.46267	6836
3.46333	6838
3.46400	6840
3.46467	6842
3.46533	6844
3.46600	6846
3.46667	6848
3.46733	6850
3.46800	6852
3.46867	6854
3.46933	6857
3.47000	6859
3.47067	6861
3.47133	6863
3.47200	6865
3.47267	6868
3.47333	6870
3.47400	6872
3.47467	6875
3.47533	6877
3.47600	6880
3.47667	6882
3.47733	6885
3.47800	6887
3.47867	6890
3.47933	6892
3.48000	6895
3.48067	6897
3.48133	6900
3.48200	6902
3.48267	6905
3.48333	6908
3.48400	6910
3.48467	6913
3.48533	6915
3.48600	6918
3.48667	6921
3.48733	6923
3.48800	6926
3.48867	6929
3.48933	6932
3.49000	6935
3.49067	6938
3.49133	6941
3.49200	6944
3.49267	6947
3.49333	6950
3.49400	6953
3.49467	6957
3.49533	6960
3.49600	6964
3.49667	6968
3.49733	6971
3.49800	6975
3.49867	6979
3.49933	6984
3.50000	6988
3.50067	6992
3.50133	6997
3.50200	7002
3.50267	7007
3.50333	7012
3.50400	7017
3.50467	7022
3.50533	7028
3.50600	7034
3.50667	7040
3.50733	7046
3.50800	7052
3.50867	7059
3.50933	7066
3.51000	7073
3.51067	7081
3.51133	7088
3.51200	7096
3.51267	7105
3.51333	7113
3.51400	7122
3.51467	7132
3.51533	7141
3.51600	7151
3.51667	7162
3.51733	7172
3.51800	7184
3.51867	7195
3.51933	7207
3.52000	7219
3.52067	7232
3.52133	7245
3.52200	7259
3.52267	7273
3.52333	7287
3.52400	7302
3.52467	7318
3.52533	7334
3.52600	7350
3.52667	7367
3.52733	7384
3.52800	7402
3.52867	7421
3.52933	7440
3.53000	7459
3.53067	7479
3.53133	7500
3.53200	7521
3.53267	7542
3.53333	7564
3.53400	7586
3.53467	7609
3.53533	7632
3.53600	7656
3.53667	7680
3.53733	7704
3.53800	7729
3.53867	7754
3.53933	7780
3.54000	7806
3.54067	7832
3.54133	7859
3.54200	7886
3.54267	7913
3.54333	7941
3.54400	7969
3.54467	7997
3.54533	8025
3.54600	8053
3.54667	8081
3.54733	8110
3.54800	8138
3.54867	8167
3.54933	8195
3.55000	8224
3.55067	8252
3.55133	8281
3.55200	8309
3.55267	8337
3.55333	8365
3.55400	8393
3.55467	8420
3.55533	8448
3.55600	8475
3.55667	8501
3.55733	8528
3.55800	8554
3.55867	8579
3.55933	8605
3.56000	8630
3.56067	8654
3.56133	8678
3.56200	8701
3.56267	8724
3.56333	8746
3.56400	8768
3.56467	8790
3.56533	8810
3.56600	8830
3.56667	8850
3.56733	8869
3.56800	8887
3.56867	8905
3.56933	8921
3.57000	8938
3.57067	8953
3.57133	8968
3.57200	8982
3.57267	8996
3.57333	9008
3.57400	9020
3.57467	9032
3.57533	9042
3.57600	9052
3.57667	9061
3.57733	9070
3.57800	9077
3.57867	9084
3.57933	9091
3.58000	9097
3.58067	9102
3.58133	9106
3.58200	9110
3.58267	9113
3.58333	9116
3.58400	9118
3.58467	9119
3.58533	9120
3.58600	9120
3.58667	9119
3.58733	9118
3.58800	9117
3.58867	9115
3.58933	9112
3.59000	9110
3.59067	9106
3.59133	9103
3.59200	9099
3.59267	9094
3.59333	9090
3.59400	9084
3.59467	9079
3.59533	9073
3.59600	9067
3.59667	9061
3.59733	9054
3.59800	9048
3.59867	9041
3.59933	9033
3.60000	9026
3.60067	9018
3.60133	9011
3.60200	9003
3.60267	8994
3.60333	8986
3.60400	8978
3.60467	8969
3.60533	8961
3.60600	8952
3.60667	8943
3.60733	8934
3.60800	8925
3.60867	8916
3.60933	8907
3.61000	8897
3.61067	8888
3.61133	8879
3.61200	8869
3.61267	8859
3.61333	8850
3.61400	8840
3.61467	8830
3.61533	8820
3.61600	8810
3.61667	8800
3.61733	8790
3.61800	8780
3.61867	8770
3.61933	8760
3.62000	8749
3.62067	8738
3.62133	8728
3.62200	8717
3.62267	8706
3.62333	8695
3.62400	8684
3.62467	8672
3.62533	8661
3.62600	8649
3.62667	8638
3.62733	8626
3.62800	8614
3.62867	8602
3.62933	8589
3.63000	8577
3.63067	8564
3.63133	8552
3.63200	8539
3.63267	8526
3.63333	8513
3.63400	8499
3.63467	8486
3.63533	8472
3.63600	8458
3.63667	8444
3.63733	8430
3.63800	8416
3.63867	8401
3.63933	8387
3.64000	8372
3.64067	8357
3.64133	8343
3.64200	8328
3.64267	8312
3.64333	8297
3.64400	8282
3.64467	8266
3.64533	8251
3.64600	8235
3.64667	8219
3.64733	8203
3.64800	8187
3.64867	8170
3.64933	8154
3.65000	8137
3.65067	8121
3.65133	8104
3.65200	8087
3.65267	8070
3.65333	8053
3.65400	8036
3.65467	8018
3.65533	8001
3.65600	7984
3.65667	7966
3.65733	7949
3.65800	7932
3.65867	7914
3.65933	7897
3.66000	7879
3.66067	7862
3.66133	7844
3.66200	7827
3.66267	7810
3.66333	7793
3.66400	7775
3.66467	7758
3.66533	7741
3.66600	7724
3.66667	7707
3.66733	7690
3.66800	7674
3.66867	7657
3.66933	7640
3.67000	7624
3.67067	7607
3.67133	7591
3.67200	7575
3.67267	7559
3.67333	7542
3.67400	7527
3.67467	7511
3.67533	7495
3.67600	7480
3.67667	7464
3.67733	7449
3.67800	7434
3.67867	7418
3.67933	7404
3.68000	7389
3.68067	7374
3.68133	7359
3.68200	7345
3.68267	7331
3.68333	7316
3.68400	7302
3.68467	7289
3.68533	7275
3.68600	7261
3.68667	7248
3.68733	7235
3.68800	7222
3.68867	7209
3.68933	7196
3.69000	7184
3.69067	7171
3.69133	7159
3.69200	7147
3.69267	7135
3.69333	7123
3.69400	7112
3.69467	7100
3.69533	7089
3.69600	7078
3.69667	7067
3.69733	7056
3.69800	7045
3.69867	7035
3.69933	7024
3.70000	7014
3.70067	7004
3.70133	6993
3.70200	6983
3.70267	6974
3.70333	6964
3.70400	6954
3.70467	6945
3.70533	6935
3.70600	6926
3.70667	6917
3.70733	6908
3.70800	6899
3.70867	6890
3.70933	6881
3.71000	6873
3.71067	6864
3.71133	6856
3.71200	6848
3.71267	6840
3.71333	6832
3.71400	6824
3.71467	6816
3.71533	6809
3.71600	6801
3.71667	6794
3.71733	6786
3.71800	6779
3.71867	6772
3.71933	6765
3.72000	6758
3.72067	6751
3.72133	6745
3.72200	6738
3.72267	6731
3.72333	6725
3.72400	6719
3.72467	6712
3.72533	6706
3.72600	6700
3.72667	6694
3.72733	6687
3.72800	6681
3.72867	6675
3.72933	6670
3.73000	6664
3.73067	6658
3.73133	6652
3.73200	6646
3.73267	6641
3.73333	6635
3.73400	6630
3.73467	6625
3.73533	6619
3.73600	6614
3.73667	6609
3.73733	6604
3.73800	6599
3.73867	6594
3.73933	6590
3.74000	6585
3.74067	6580
3.74133	6576
3.74200	6571
3.74267	6567
3.74333	6562
3.74400	6558
3.74467	6554
3.74533	6550
3.74600	6546
3.74667	6541
3.74733	6537
3.74800	6533
3.74867	6530
3.74933	6526
3.75000	6522
3.75067	6518
3.75133	6514
3.75200	6511
3.75267	6507
3.75333	6504
3.75400	6500
3.75467	6497
3.75533	6493
3.75600	6490
3.75667	6486
3.75733	6483
3.75800	6479
3.75867	6476
3.75933	6473
3.76000	6469
3.76067	6466
3.76133	6463
3.76200	6460
3.76267	6457
3.76333	6454
3.76400	6451
3.76467	6447
3.76533	6444
3.76600	6441
3.76667	6438
3.76733	6436
3.76800	6433
3.76867	6430
3.76933	6427
3.77000	6425
3.77067	6422
3.77133	6420
3.77200	6417
3.77267	6415
3.77333	6412
3.77400	6410
3.77467	6407
3.77533	6405
3.77600	6403
3.77667	6400
3.77733	6398
3.77800	6395
3.77867	6393
3.77933	6391
3.78000	6388
3.78067	6386
3.78133	6384
3.78200	6381
3.78267	6379
3.78333	6377
3.78400	6375
3.78467	6373
3.78533	6371
3.78600	6368
3.78667	6366
3.78733	6364
3.78800	6362
3.78867	6360
3.78933	6359
3.79000	6357
3.79067	6355
3.79133	6353
3.79200	6351
3.79267	6350
3.79333	6348
3.79400	6346
3.79467	6345
3.79533	6343
3.79600	6341
3.79667	6340
3.79733	6338
3.79800	6336
3.79867	6335
3.79933	6333
3.80000	6331
3.80067	6330
3.80133	6328
3.80200	6326
3.80267	6325
3.80333	6323
3.80400	6321
3.80467	6320
3.80533	6318
3.80600	6317
3.80667	6315
3.80733	6313
3.80800	6312
3.80867	6310
3.80933	6308
3.81000	6307
3.81067	6305
3.81133	6304
3.81200	6302
3.81267	6300
3.81333	6299
3.81400	6297
3.81467	6295
3.81533	6294
3.81600	6292
3.81667	6290
3.81733	6289
3.81800	6287
3.81867	6285
3.81933	6283
3.82000	6282
3.82067	6280
3.82133	6278
3.82200	6277
3.82267	6275
3.82333	6273
3.82400	6272
3.82467	6270
3.82533	6269
3.82600	6267
3.82667	6265
3.82733	6264
3.82800	6262
3.82867	6261
3.82933	6259
3.83000	6258
3.83067	6256
3.83133	6255
3.83200	6253
3.83267	6251
3.83333	6250
3.83400	6248
3.83467	6247
3.83533	6245
3.83600	6243
3.83667	6242
3.83733	6240
3.83800	6239
3.83867	6237
3.83933	6236
3.84000	6234
3.84067	6233
3.84133	6231
3.84200	6230
3.84267	6228
3.84333	6227
3.84400	6225
3.84467	6224
3.84533	6222
3.84600	6221
3.84667	6219
3.84733	6218
3.84800	6216
3.84867	6215
3.84933	6213
3.85000	6212
3.85067	6210
3.85133	6209
3.85200	6207
3.85267	6206
3.85333	6205
3.85400	6203
3.85467	6202
3.85533	6200
3.85600	6199
3.85667	6198
3.85733	6196
3.85800	6195
3.85867	6193
3.85933	6192
3.86000	6190
3.86067	6189
3.86133	6188
3.86200	6186
3.86267	6185
3.86333	6184
3.86400	6182
3.86467	6181
3.86533	6180
3.86600	6179
3.86667	6178
3.86733	6176
3.86800	6175
3.86867	6174
3.86933	6173
3.87000	6172
3.87067	6171
3.87133	6170
3.87200	6169
3.87267	6168
3.87333	6167
3.87400	6167
3.87467	6166
3.87533	6165
3.87600	6164
3.87667	6163
3.87733	6162
3.87800	6161
3.87867	6160
3.87933	6160
3.88000	6159
3.88067	6158
3.88133	6157
3.88200	6156
3.88267	6155
3.88333	6155
3.88400	6154
3.88467	6153
3.88533	6153
3.88600	6152
3.88667	6151
3.88733	6150
3.88800	6150
3.88867	6149
3.88933	6148
3.89000	6148
3.89067	6147
3.89133	6147
3.89200	6146
3.89267	6145
3.89333	6145
3.89400	6144
3.89467	6144
3.89533	6143
3.89600	6143
3.89667	6142
3.89733	6142
3.89800	6141
3.89867	6141
3.89933	6140
3.90000	6140
3.90067	6139
3.90133	6139
3.90200	6139
3.90267	6138
3.90333	6138
3.90400	6138
3.90467	6137
3.90533	6137
3.90600	6136
3.90667	6136
3.90733	6135
3.90800	6135
3.90867	6134
3.90933	6134
3.91000	6134
3.91067	6133
3.91133	6133
3.91200	6132
3.91267	6132
3.91333	6131
3.91400	6131
3.91467	6130
3.91533	6130
3.91600	6129
3.91667	6129
3.91733	6128
3.91800	6128
3.91867	6128
3.91933	6127
3.92000	6127
3.92067	6126
3.92133	6126
3.92200	6125
3.92267	6125
3.92333	6124
3.92400	6124
3.92467	6123
3.92533	6123
3.92600	6122
3.92667	6122
3.92733	6121
3.92800	6121
3.92867	6120
3.92933	6119
3.93000	6119
3.93067	6118
3.93133	6117
3.93200	6117
3.93267	6116
3.93333	6116
3.93400	6115
3.93467	6114
3.93533	6114
3.93600	6113
3.93667	6113
3.93733	6113
3.93800	6112
3.93867	6112
3.93933	6112
3.94000	6111
3.94067	6111
3.94133	6111
3.94200	6111
3.94267	6110
3.94333	6110
3.94400	6110
3.94467	6110
3.94533	6110
3.94600	6109
3.94667	6109
3.94733	6109
3.94800	6109
3.94867	6108
3.94933	6108
3.95000	6108
3.95067	6107
3.95133	6107
3.95200	6107
3.95267	6106
3.95333	6106
3.95400	6106
3.95467	6105
3.95533	6105
3.95600	6104
3.95667	6104
3.95733	6103
3.95800	6103
3.95867	6102
3.95933	6102
3.96000	6101
3.96067	6101
3.96133	6100
3.96200	6100
3.96267	6099
3.96333	6099
3.96400	6099
3.96467	6098
3.96533	6098
3.96600	6097
3.96667	6097
3.96733	6097
3.96800	6096
3.96867	6096
3.96933	6095
3.97000	6095
3.97067	6095
3.97133	6095
3.97200	6094
3.97267	6094
3.97333	6094
3.97400	6094
3.97467	6094
3.97533	6094
3.97600	6094
3.97667	6094
3.97733	6094
3.97800	6094
3.97867	6094
3.97933	6094
3.98000	6094
3.98067	6094
3.98133	6095
3.98200	6095
3.98267	6095
3.98333	6095
3.98400	6096
3.98467	6096
3.98533	6097
3.98600	6097
3.98667	6098
3.98733	6098
3.98800	6099
3.98867	6100
3.98933	6100
3.99000	6101
3.99067	6102
3.99133	6103
3.99200	6104
3.99267	6105
3.99333	6107
3.99400	6108
3.99467	6110
3.99533	6111
3.99600	6113
3.99667	6114
3.99733	6116
3.99800	6118
3.99867	6120
3.99933	6122
4.00000	6124
4.00067	6127
4.00133	6129
4.00200	6131
4.00267	6134
4.00333	6136
4.00400	6139
4.00467	6142
4.00533	6145
4.00600	6148
4.00667	6151
4.00733	6155
4.00800	6158
4.00867	6162
4.00933	6165
4.01000	6169
4.01067	6173
4.01133	6177
4.01200	6182
4.01267	6186
4.01333	6191
4.01400	6196
4.01467	6201
4.01533	6206
4.01600	6212
4.01667	6217
4.01733	6223
4.01800	6229
4.01867	6235
4.01933	6241
4.02000	6247
4.02067	6254
4.02133	6261
4.02200	6268
4.02267	6275
4.02333	6282
4.02400	6290
4.02467	6298
4.02533	6306
4.02600	6314
4.02667	6323
4.02733	6331
4.02800	6340
4.02867	6349
4.02933	6358
4.03000	6368
4.03067	6377
4.03133	6387
4.03200	6397
4.03267	6407
4.03333	6418
4.03400	6428
4.03467	6439
4.03533	6450
4.03600	6461
4.03667	6473
4.03733	6485
4.03800	6496
4.03867	6508
4.03933	6520
4.04000	6533
4.04067	6545
4.04133	6558
4.04200	6571
4.04267	6584
4.04333	6597
4.04400	6611
4.04467	6624
4.04533	6638
4.04600	6652
4.04667	6666
4.04733	6680
4.04800	6695
4.04867	6709
4.04933	6724
4.05000	6738
4.05067	6753
4.05133	6768
4.05200	6783
4.05267	6798
4.05333	6813
4.05400	6828
4.05467	6843
4.05533	6858
4.05600	6874
4.05667	6889
4.05733	6904
4.05800	6920
4.05867	6935
4.05933	6950
4.06000	6966
4.06067	6981
4.06133	6996
4.06200	7011
4.06267	7027
4.06333	7042
4.06400	7057
4.06467	7072
4.06533	7087
4.06600	7102
4.06667	7117
4.06733	7132
4.06800	7147
4.06867	7162
4.06933	7177
4.07000	7191
4.07067	7206
4.07133	7220
4.07200	7234
4.07267	7248
4.07333	7262
4.07400	7276
4.07467	7290
4.07533	7303
4.07600	7317
4.07667	7330
4.07733	7343
4.07800	7356
4.07867	7368
4.07933	7381
4.08000	7393
4.08067	7405
4.08133	7417
4.08200	7428
4.08267	7439
4.08333	7451
4.08400	7461
4.08467	7472
4.08533	7483
4.08600	7493
4.08667	7503
4.08733	7512
4.08800	7522
4.08867	7531
4.08933	7540
4.09000	7549
4.09067	7557
4.09133	7565
4.09200	7573
4.09267	7581
4.09333	7588
4.09400	7596
4.09467	7603
4.09533	7610
4.09600	7616
4.09667	7622
4.09733	7628
4.09800	7634
4.09867	7639
4.09933	7645
4.10000	7650
4.10067	7655
4.10133	7659
4.10200	7664
4.10267	7668
4.10333	7672
4.10400	7676
4.10467	7679
4.10533	7683
4.10600	7686
4.10667	7690
4.10733	7693
4.10800	7696
4.10867	7699
4.10933	7701
4.11000	7704
4.11067	7707
4.11133	7709
4.11200	7711
4.11267	7713
4.11333	7715
4.11400	7717
4.11467	7718
4.11533	7720
4.11600	7722
4.11667	7723
4.11733	7725
4.11800	7726
4.11867	7728
4.11933	7729
4.12000	7731
4.12067	7732
4.12133	7734
4.12200	7735
4.12267	7737
4.12333	7738
4.12400	7740
4.12467	7742
4.12533	7743
4.12600	7745
4.12667	7747
4.12733	7749
4.12800	7751
4.12867	7753
4.12933	7755
4.13000	7757
4.13067	7759
4.13133	7761
4.13200	7764
4.13267	7766
4.13333	7769
4.13400	7772
4.13467	7775
4.13533	7778
4.13600	7782
4.13667	7785
4.13733	7789
4.13800	7792
4.13867	7796
4.13933	7800
4.14000	7804
4.14067	7808
4.14133	7813
4.14200	7817
4.14267	7822
4.14333	7826
4.14400	7831
4.14467	7836
4.14533	7841
4.14600	7847
4.14667	7852
4.14733	7858
4.14800	7863
4.14867	7869
4.14933	7875
4.15000	7881
4.15067	7888
4.15133	7894
4.15200	7901
4.15267	7908
4.15333	7915
4.15400	7922
4.15467	7929
4.15533	7936
4.15600	7944
4.15667	7951
4.15733	7959
4.15800	7967
4.15867	7975
4.15933	7983
4.16000	7991
4.16067	7999
4.16133	8007
4.16200	8016
4.16267	8025
4.16333	8033
4.16400	8042
4.16467	8052
4.16533	8061
4.16600	8070
4.16667	8079
4.16733	8089
4.16800	8098
4.16867	8108
4.16933	8117
4.17000	8127
4.17067	8137
4.17133	8147
4.17200	8156
4.17267	8166
4.17333	8176
4.17400	8186
4.17467	8196
4.17533	8206
4.17600	8216
4.17667	8226
4.17733	8236
4.17800	8247
4.17867	8257
4.17933	8267
4.18000	8278
4.18067	8288
4.18133	8299
4.18200	8309
4.18267	8320
4.18333	8331
4.18400	8341
4.18467	8352
4.18533	8363
4.18600	8374
4.18667	8385
4.18733	8396
4.18800	8407
4.18867	8418
4.18933	8429
4.19000	8440
4.19067	8451
4.19133	8462
4.19200	8474
4.19267	8485
4.19333	8497
4.19400	8508
4.19467	8520
4.19533	8532
4.19600	8544
4.19667	8556
4.19733	8568
4.19800	8580
4.19867	8593
4.19933	8605
4.20000	8618
4.20067	8631
4.20133	8644
4.20200	8658
4.20267	8672
4.20333	8685
4.20400	8700
4.20467	8714
4.20533	8729
4.20600	8744
4.20667	8759
4.20733	8774
4.20800	8790
4.20867	8806
4.20933	8822
4.21000	8839
4.21067	8856
4.21133	8873
4.21200	8891
4.21267	8909
4.21333	8927
4.21400	8946
4.21467	8965
4.21533	8985
4.21600	9005
4.21667	9026
4.21733	9047
4.21800	9069
4.21867	9091
4.21933	9114
4.22000	9138
4.22067	9162
4.22133	9187
4.22200	9213
4.22267	9239
4.22333	9267
4.22400	9295
4.22467	9324
4.22533	9354
4.22600	9385
4.22667	9416
4.22733	9449
4.22800	9483
4.22867	9518
4.22933	9554
4.23000	9591
4.23067	9630
4.23133	9669
4.23200	9710
4.23267	9752
4.23333	9795
4.23400	9840
4.23467	9885
4.23533	9933
4.23600	9982
4.23667	10032
4.23733	10084
4.23800	10138
4.23867	10194
4.23933	10251
4.24000	10311
4.24067	10372
4.24133	10435
4.24200	10501
4.24267	10569
4.24333	10639
4.24400	10711
4.24467	10786
4.24533	10863
4.24600	10943
4.24667	11026
4.24733	11111
4.24800	11200
4.24867	11291
4.24933	11386
4.25000	11483
4.25067	11585
4.25133	11689
4.25200	11797
4.25267	11908
4.25333	12024
4.25400	12143
4.25467	12266
4.25533	12394
4.25600	12526
4.25667	12662
4.25733	12804
4.25800	12950
4.25867	13101
4.25933	13257
4.26000	13419
4.26067	13587
4.26133	13760
4.26200	13939
4.26267	14124
4.26333	14315
4.26400	14512
4.26467	14717
4.26533	14927
4.26600	15145
4.26667	15370
4.26733	15603
4.26800	15842
4.26867	16090
4.26933	16346
4.27000	16610
4.27067	16882
4.27133	17164
4.27200	17454
4.27267	17753
4.27333	18062
4.27400	18380
4.27467	18709
4.27533	19047
4.27600	19396
4.27667	19755
4.27733	20124
4.27800	20505
4.27867	20897
4.27933	21301
4.28000	21716
4.28067	22143
4.28133	22582
4.28200	23033
4.28267	23498
4.28333	23975
4.28400	24465
4.28467	24969
4.28533	25487
4.28600	26018
4.28667	26564
4.28733	27125
4.28800	27701
4.28867	28292
4.28933	28898
4.29000	29520
4.29067	30159
4.29133	30814
4.29200	31486
4.29267	32175
4.29333	32881
4.29400	33605
4.29467	34347
4.29533	35107
4.29600	35886
4.29667	36683
4.29733	37498
4.29800	38333
4.29867	39186
4.29933	40058
4.30000	40950
4.30067	41860
4.30133	42790
4.30200	43741
4.30267	44711
4.30333	45701
4.30400	46713
4.30467	47744
4.30533	48797
4.30600	49870
4.30667	50965
4.30733	52080
4.30800	53217
4.30867	54374
4.30933	55554
4.31000	56754
4.31067	57976
4.31133	59219
4.31200	60484
4.31267	61770
4.31333	63076
4.31400	64404
4.31467	65752
4.31533	67122
4.31600	68511
4.31667	69921
4.31733	71352
4.31800	72802
4.31867	74273
4.31933	75764
4.32000	77275
4.32067	78806
4.32133	80359
4.32200	81932
4.32267	83525
4.32333	85140
4.32400	86774
4.32467	88429
4.32533	90104
4.32600	91797
4.32667	93509
4.32733	95238
4.32800	96984
4.32867	98747
4.32933	100524
4.33000	102316
4.33067	104120
4.33133	105938
4.33200	107766
4.33267	109605
4.33333	111454
4.33400	113312
4.33467	115177
4.33533	117050
4.33600	118928
4.33667	120811
4.33733	122699
4.33800	124590
4.33867	126483
4.33933	128377
4.34000	130272
4.34067	132166
4.34133	134057
4.34200	135946
4.34267	137832
4.34333	139713
4.34400	141588
4.34467	143457
4.34533	145319
4.34600	147173
4.34667	149017
4.34733	150852
4.34800	152674
4.34867	154483
4.34933	156278
4.35000	158056
4.35067	159818
4.35133	161560
4.35200	163282
4.35267	164981
4.35333	166658
4.35400	168309
4.35467	169934
4.35533	171532
4.35600	173101
4.35667	174641
4.35733	176150
4.35800	177627
4.35867	179072
4.35933	180482
4.36000	181858
4.36067	183198
4.36133	184501
4.36200	185766
4.36267	186991
4.36333	188175
4.36400	189317
4.36467	190416
4.36533	191471
4.36600	192481
4.36667	193445
4.36733	194362
4.36800	195230
4.36867	196049
4.36933	196819
4.37000	197538
4.37067	198204
4.37133	198818
4.37200	199378
4.37267	199884
4.37333	200334
4.37400	200727
4.37467	201065
4.37533	201346
4.37600	201569
4.37667	201735
4.37733	201844
4.37800	201895
4.37867	201888
4.37933	201823
4.38000	201700
4.38067	201519
4.38133	201280
4.38200	200986
4.38267	200634
4.38333	200228
4.38400	199768
4.38467	199254
4.38533	198688
4.38600	198070
4.38667	197402
4.38733	196684
4.38800	195918
4.38867	195105
4.38933	194245
4.39000	193340
4.39067	192390
4.39133	191398
4.39200	190365
4.39267	189291
4.39333	188179
4.39400	187030
4.39467	185845
4.39533	184627
4.39600	183377
4.39667	182096
4.39733	180787
4.39800	179451
4.39867	178089
4.39933	176704
4.40000	175296
4.40067	173868
4.40133	172422
4.40200	170958
4.40267	169478
4.40333	167985
4.40400	166479
4.40467	164963
4.40533	163437
4.40600	161902
4.40667	160362
4.40733	158816
4.40800	157267
4.40867	155715
4.40933	154162
4.41000	152610
4.41067	151059
4.41133	149510
4.41200	147965
4.41267	146425
4.41333	144890
4.41400	143362
4.41467	141842
4.41533	140330
4.41600	138828
4.41667	137336
4.41733	135855
4.41800	134385
4.41867	132928
4.41933	131484
4.42000	130053
4.42067	128637
4.42133	127234
4.42200	125847
4.42267	124475
4.42333	123119
4.42400	121780
4.42467	120457
4.42533	119152
4.42600	117865
4.42667	116596
4.42733	115345
4.42800	114112
4.42867	112899
4.42933	111704
4.43000	110529
4.43067	109372
4.43133	108235
4.43200	107116
4.43267	106017
4.43333	104936
4.43400	103875
4.43467	102832
4.43533	101808
4.43600	100803
4.43667	99817
4.43733	98849
4.43800	97898
4.43867	96966
4.43933	96052
4.44000	95155
4.44067	94275
4.44133	93412
4.44200	92565
4.44267	91734
4.44333	90920
4.44400	90120
4.44467	89336
4.44533	88566
4.44600	87810
4.44667	87069
4.44733	86341
4.44800	85627
4.44867	84925
4.44933	84237
4.45000	83561
4.45067	82897
4.45133	82245
4.45200	81604
4.45267	80975
4.45333	80357
4.45400	79749
4.45467	79152
4.45533	78564
4.45600	77986
4.45667	77417
4.45733	76856
4.45800	76304
4.45867	75760
4.45933	75223
4.46000	74693
4.46067	74169
4.46133	73652
4.46200	73141
4.46267	72635
4.46333	72134
4.46400	71639
4.46467	71148
4.46533	70662
4.46600	70180
4.46667	69702
4.46733	69228
4.46800	68758
4.46867	68291
4.46933	67827
4.47000	67365
4.47067	66907
4.47133	66451
4.47200	65997
4.47267	65545
4.47333	65096
4.47400	64648
4.47467	64202
4.47533	63757
4.47600	63314
4.47667	62873
4.47733	62432
4.47800	61993
4.47867	61555
4.47933	61118
4.48000	60682
4.48067	60247
4.48133	59813
4.48200	59379
4.48267	58947
4.48333	58515
4.48400	58083
4.48467	57653
4.48533	57223
4.48600	56793
4.48667	56365
4.48733	55937
4.48800	55510
4.48867	55083
4.48933	54657
4.49000	54232
4.49067	53808
4.49133	53385
4.49200	52962
4.49267	52540
4.49333	52119
4.49400	51698
4.49467	51279
4.49533	50861
4.49600	50444
4.49667	50028
4.49733	49614
4.49800	49201
4.49867	48789
4.49933	48379
4.50000	47971
4.50067	47564
4.50133	47160
4.50200	46757
4.50267	46356
4.50333	45957
4.50400	45560
4.50467	45165
4.50533	44772
4.50600	44381
4.50667	43994
4.50733	43608
4.50800	43226
4.50867	42847
4.50933	42470
4.51000	42097
4.51067	41728
4.51133	41361
4.51200	40999
4.51267	40641
4.51333	40286
4.51400	39936
4.51467	39590
4.51533	39248
4.51600	38912
4.51667	38580
4.51733	38252
4.51800	37930
4.51867	37613
4.51933	37301
4.52000	36995
4.52067	36694
4.52133	36398
4.52200	36109
4.52267	35825
4.52333	35547
4.52400	35276
4.52467	35011
4.52533	34752
4.52600	34500
4.52667	34254
4.52733	34016
4.52800	33784
4.52867	33559
4.52933	33342
4.53000	33132
4.53067	32929
4.53133	32734
4.53200	32547
4.53267	32367
4.53333	32195
4.53400	32032
4.53467	31876
4.53533	31729
4.53600	31590
4.53667	31459
4.53733	31337
4.53800	31224
4.53867	31119
4.53933	31024
4.54000	30938
4.54067	30860
4.54133	30792
4.54200	30733
4.54267	30684
4.54333	30644
4.54400	30613
4.54467	30593
4.54533	30582
4.54600	30580
4.54667	30589
4.54733	30607
4.54800	30636
4.54867	30675
4.54933	30724
4.55000	30783
4.55067	30852
4.55133	30932
4.55200	31023
4.55267	31124
4.55333	31236
4.55400	31359
4.55467	31492
4.55533	31636
4.55600	31791
4.55667	31958
4.55733	32135
4.55800	32323
4.55867	32522
4.55933	32732
4.56000	32952
4.56067	33183
4.56133	33425
4.56200	33677
4.56267	33939
4.56333	34211
4.56400	34494
4.56467	34786
4.56533	35089
4.56600	35401
4.56667	35723
4.56733	36054
4.56800	36396
4.56867	36747
4.56933	37107
4.57000	37477
4.57067	37857
4.57133	38245
4.57200	38642
4.57267	39049
4.57333	39463
4.57400	39887
4.57467	40318
4.57533	40758
4.57600	41205
4.57667	41660
4.57733	42122
4.57800	42591
4.57867	43067
4.57933	43550
4.58000	44039
4.58067	44535
4.58133	45036
4.58200	45543
4.58267	46056
4.58333	46574
4.58400	47097
4.58467	47626
4.58533	48159
4.58600	48697
4.58667	49238
4.58733	49783
4.58800	50332
4.58867	50884
4.58933	51438
4.59000	51995
4.59067	52554
4.59133	53114
4.59200	53676
4.59267	54240
4.59333	54803
4.59400	55367
4.59467	55931
4.59533	56493
4.59600	57055
4.59667	57615
4.59733	58174
4.59800	58730
4.59867	59283
4.59933	59833
4.60000	60380
4.60067	60923
4.60133	61462
4.60200	61996
4.60267	62525
4.60333	63048
4.60400	63565
4.60467	64077
4.60533	64581
4.60600	65079
4.60667	65570
4.60733	66054
4.60800	66530
4.60867	66999
4.60933	67459
4.61000	67912
4.61067	68355
4.61133	68790
4.61200	69216
4.61267	69633
4.61333	70039
4.61400	70436
4.61467	70823
4.61533	71199
4.61600	71565
4.61667	71920
4.61733	72263
4.61800	72596
4.61867	72917
4.61933	73226
4.62000	73523
4.62067	73809
4.62133	74083
4.62200	74345
4.62267	74595
4.62333	74833
4.62400	75058
4.62467	75272
4.62533	75473
4.62600	75662
4.62667	75838
4.62733	76001
4.62800	76151
4.62867	76289
4.62933	76414
4.63000	76527
4.63067	76626
4.63133	76713
4.63200	76787
4.63267	76848
4.63333	76897
4.63400	76933
4.63467	76957
4.63533	76969
4.63600	76969
4.63667	76957
4.63733	76933
4.63800	76897
4.63867	76849
4.63933	76790
4.64000	76720
4.64067	76639
4.64133	76546
4.64200	76443
4.64267	76328
4.64333	76203
4.64400	76067
4.64467	75921
4.64533	75765
4.64600	75599
4.64667	75423
4.64733	75239
4.64800	75045
4.64867	74843
4.64933	74633
4.65000	74414
4.65067	74188
4.65133	73955
4.65200	73714
4.65267	73466
4.65333	73212
4.65400	72951
4.65467	72684
4.65533	72411
4.65600	72133
4.65667	71849
4.65733	71560
4.65800	71267
4.65867	70970
4.65933	70668
4.66000	70363
4.66067	70054
4.66133	69741
4.66200	69426
4.66267	69107
4.66333	68785
4.66400	68461
4.66467	68135
4.66533	67807
4.66600	67476
4.66667	67144
4.66733	66810
4.66800	66474
4.66867	66137
4.66933	65800
4.67000	65461
4.67067	65122
4.67133	64782
4.67200	64443
4.67267	64103
4.67333	63763
4.67400	63424
4.67467	63085
4.67533	62747
4.67600	62410
4.67667	62073
4.67733	61737
4.67800	61403
4.67867	61069
4.67933	60736
4.68000	60405
4.68067	60076
4.68133	59747
4.68200	59421
4.68267	59096
4.68333	58772
4.68400	58451
4.68467	58131
4.68533	57812
4.68600	57496
4.68667	57181
4.68733	56868
4.68800	56558
4.68867	56249
4.68933	55942
4.69000	55638
4.69067	55336
4.69133	55036
4.69200	54739
4.69267	54444
4.69333	54151
4.69400	53862
4.69467	53574
4.69533	53289
4.69600	53007
4.69667	52727
4.69733	52450
4.69800	52176
4.69867	51905
4.69933	51636
4.70000	51371
4.70067	51108
4.70133	50848
4.70200	50592
4.70267	50338
4.70333	50087
4.70400	49840
4.70467	49595
4.70533	49354
4.70600	49115
4.70667	48880
4.70733	48648
4.70800	48419
4.70867	48193
4.70933	47970
4.71000	47750
4.71067	47533
4.71133	47318
4.71200	47107
4.71267	46899
4.71333	46693
4.71400	46490
4.71467	46290
4.71533	46092
4.71600	45897
4.71667	45704
4.71733	45513
4.71800	45324
4.71867	45138
4.71933	44954
4.72000	44772
4.72067	44592
4.72133	44414
4.72200	44238
4.72267	44064
4.72333	43892
4.72400	43721
4.72467	43553
4.72533	43387
4.72600	43222
4.72667	43059
4.72733	42898
4.72800	42739
4.72867	42581
4.72933	42425
4.73000	42271
4.73067	42118
4.73133	41967
4.73200	41817
4.73267	41669
4.73333	41523
4.73400	41377
4.73467	41234
4.73533	41092
4.73600	40951
4.73667	40812
4.73733	40674
4.73800	40538
4.73867	40403
4.73933	40270
4.74000	40139
4.74067	40009
4.74133	39880
4.74200	39753
4.74267	39628
4.74333	39504
4.74400	39382
4.74467	39261
4.74533	39142
4.74600	39025
4.74667	38909
4.74733	38794
4.74800	38682
4.74867	38570
4.74933	38461
4.75000	38352
4.75067	38245
4.75133	38140
4.75200	38036
4.75267	37933
4.75333	37832
4.75400	37732
4.75467	37633
4.75533	37535
4.75600	37439
4.75667	37343
4.75733	37249
4.75800	37156
4.75867	37064
4.75933	36973
4.76000	36883
4.76067	36795
4.76133	36707
4.76200	36620
4.76267	36535
4.76333	36450
4.76400	36366
4.76467	36284
4.76533	36202
4.76600	36121
4.76667	36042
4.76733	35963
4.76800	35885
4.76867	35808
4.76933	35731
4.77000	35656
4.77067	35581
4.77133	35507
4.77200	35434
4.77267	35362
4.77333	35290
4.77400	35219
4.77467	35149
4.77533	35079
4.77600	35011
4.77667	34943
4.77733	34875
4.77800	34809
4.77867	34743
4.77933	34678
4.78000	34613
4.78067	34550
4.78133	34486
4.78200	34424
4.78267	34362
4.78333	34300
4.78400	34240
4.78467	34179
4.78533	34120
4.78600	34061
4.78667	34002
4.78733	33945
4.78800	33888
4.78867	33832
4.78933	33776
4.79000	33721
4.79067	33666
4.79133	33612
4.79200	33559
4.79267	33506
4.79333	33453
4.79400	33401
4.79467	33349
4.79533	33297
4.79600	33246
4.79667	33195
4.79733	33144
4.79800	33094
4.79867	33044
4.79933	32994
4.80000	32944
4.80067	32895
4.80133	32846
4.80200	32797
4.80267	32749
4.80333	32700
4.80400	32652
4.80467	32604
4.80533	32556
4.80600	32508
4.80667	32461
4.80733	32414
4.80800	32367
4.80867	32320
4.80933	32273
4.81000	32227
4.81067	32180
4.81133	32134
4.81200	32089
4.81267	32043
4.81333	31997
4.81400	31952
4.81467	31907
4.81533	31862
4.81600	31817
4.81667	31772
4.81733	31727
4.81800	31683
4.81867	31639
4.81933	31595
4.82000	31552
4.82067	31509
4.82133	31466
4.82200	31423
4.82267	31381
4.82333	31339
4.82400	31297
4.82467	31255
4.82533	31214
4.82600	31172
4.82667	31131
4.82733	31091
4.82800	31050
4.82867	31010
4.82933	30969
4.83000	30929
4.83067	30889
4.83133	30850
4.83200	30810
4.83267	30771
4.83333	30732
4.83400	30693
4.83467	30654
4.83533	30615
4.83600	30577
4.83667	30538
4.83733	30500
4.83800	30463
4.83867	30425
4.83933	30387
4.84000	30350
4.84067	30313
4.84133	30276
4.84200	30240
4.84267	30204
4.84333	30167
4.84400	30132
4.84467	30096
4.84533	30061
4.84600	30025
4.84667	29990
4.84733	29956
4.84800	29921
4.84867	29887
4.84933	29853
4.85000	29819
4.85067	29785
4.85133	29751
4.85200	29718
4.85267	29685
4.85333	29652
4.85400	29619
4.85467	29587
4.85533	29555
4.85600	29523
4.85667	29492
4.85733	29460
4.85800	29429
4.85867	29398
4.85933	29367
4.86000	29337
4.86067	29306
4.86133	29276
4.86200	29245
4.86267	29215
4.86333	29184
4.86400	29154
4.86467	29124
4.86533	29094
4.86600	29063
4.86667	29033
4.86733	29003
4.86800	28973
4.86867	28942
4.86933	28912
4.87000	28882
4.87067	28851
4.87133	28820
4.87200	28789
4.87267	28758
4.87333	28727
4.87400	28696
4.87467	28665
4.87533	28634
4.87600	28603
4.87667	28572
4.87733	28541
4.87800	28510
4.87867	28478
4.87933	28447
4.88000	28416
4.88067	28385
4.88133	28354
4.88200	28323
4.88267	28291
4.88333	28260
4.88400	28229
4.88467	28198
4.88533	28167
4.88600	28136
4.88667	28106
4.88733	28076
4.88800	28046
4.88867	28017
4.88933	27988
4.89000	27959
4.89067	27930
4.89133	27902
4.89200	27874
4.89267	27846
4.89333	27819
4.89400	27792
4.89467	27764
4.89533	27737
4.89600	27710
4.89667	27683
4.89733	27657
4.89800	27630
4.89867	27604
4.89933	27577
4.90000	27551
4.90067	27525
4.90133	27498
4.90200	27472
4.90267	27446
4.90333	27420
4.90400	27394
4.90467	27368
4.90533	27342
4.90600	27316
4.90667	27290
4.90733	27263
4.90800	27237
4.90867	27211
4.90933	27185
4.91000	27159
4.91067	27132
4.91133	27106
4.91200	27080
4.91267	27054
4.91333	27028
4.91400	27003
4.91467	26977
4.91533	26951
4.91600	26925
4.91667	26900
4.91733	26874
4.91800	26848
4.91867	26823
4.91933	26797
4.92000	26772
4.92067	26747
4.92133	26722
4.92200	26697
4.92267	26672
4.92333	26647
4.92400	26623
4.92467	26598
4.92533	26574
4.92600	26550
4.92667	26525
4.92733	26501
4.92800	26477
4.92867	26453
4.92933	26429
4.93000	26406
4.93067	26382
4.93133	26359
4.93200	26335
4.93267	26312
4.93333	26289
4.93400	26266
4.93467	26243
4.93533	26220
4.93600	26197
4.93667	26174
4.93733	26151
4.93800	26129
4.93867	26106
4.93933	26084
4.94000	26061
4.94067	26039
4.94133	26016
4.94200	25994
4.94267	25972
4.94333	25949
4.94400	25927
4.94467	25905
4.94533	25883
4.94600	25860
4.94667	25838
4.94733	25816
4.94800	25793
4.94867	25770
4.94933	25748
4.95000	25725
4.95067	25702
4.95133	25679
4.95200	25656
4.95267	25633
4.95333	25611
4.95400	25588
4.95467	25566
4.95533	25543
4.95600	25521
4.95667	25499
4.95733	25477
4.95800	25455
4.95867	25434
4.95933	25412
4.96000	25390
4.96067	25369
4.96133	25347
4.96200	25326
4.96267	25304
4.96333	25282
4.96400	25261
4.96467	25239
4.96533	25217
4.96600	25195
4.96667	25174
4.96733	25152
4.96800	25130
4.96867	25109
4.96933	25088
4.97000	25066
4.97067	25045
4.97133	25024
4.97200	25003
4.97267	24982
4.97333	24962
4.97400	24941
4.97467	24921
4.97533	24900
4.97600	24880
4.97667	24859
4.97733	24839
4.97800	24818
4.97867	24798
4.97933	24778
4.98000	24757
4.98067	24737
4.98133	24717
4.98200	24697
4.98267	24677
4.98333	24657
4.98400	24637
4.98467	24617
4.98533	24597
4.98600	24577
4.98667	24557
4.98733	24537
4.98800	24517
4.98867	24496
4.98933	24476
4.99000	24456
4.99067	24436
4.99133	24417
4.99200	24397
4.99267	24377
4.99333	24357
4.99400	24337
4.99467	24317
4.99533	24298
4.99600	24278
4.99667	24258
4.99733	24238
4.99800	24219
4.99867	24199
4.99933	24180
5.00000	24161
5.00067	24141
5.00133	24122
5.00200	24104
5.00267	24085
5.00333	24066
5.00400	24048
5.00467	24030
5.00533	24012
5.00600	23993
5.00667	23975
5.00733	23958
5.00800	23940
5.00867	23922
5.00933	23904
5.01000	23887
5.01067	23869
5.01133	23851
5.01200	23834
5.01267	23816
5.01333	23799
5.01400	23781
5.01467	23764
5.01533	23747
5.01600	23730
5.01667	23713
5.01733	23695
5.01800	23678
5.01867	23662
5.01933	23645
5.02000	23628
5.02067	23611
5.02133	23594
5.02200	23577
5.02267	23560
5.02333	23544
5.02400	23527
5.02467	23510
5.02533	23494
5.02600	23477
5.02667	23461
5.02733	23445
5.02800	23429
5.02867	23413
5.02933	23397
5.03000	23381
5.03067	23365
5.03133	23349
5.03200	23334
5.03267	23318
5.03333	23302
5.03400	23287
5.03467	23271
5.03533	23255
5.03600	23240
5.03667	23224
5.03733	23208
5.03800	23193
5.03867	23177
5.03933	23161
5.04000	23146
5.04067	23130
5.04133	23115
5.04200	23099
5.04267	23084
5.04333	23068
5.04400	23053
5.04467	23038
5.04533	23023
5.04600	23008
5.04667	22993
5.04733	22978
5.04800	22963
5.04867	22948
5.04933	22933
5.05000	22918
5.05067	22904
5.05133	22889
5.05200	22875
5.05267	22860
5.05333	22846
5.05400	22831
5.05467	22817
5.05533	22803
5.05600	22788
5.05667	22774
5.05733	22759
5.05800	22745
5.05867	22730
5.05933	22715
5.06000	22701
5.06067	22686
5.06133	22671
5.06200	22656
5.06267	22641
5.06333	22626
5.06400	22611
5.06467	22596
5.06533	22580
5.06600	22564
5.06667	22548
5.06733	22532
5.06800	22516
5.06867	22500
5.06933	22484
5.07000	22467
5.07067	22450
5.07133	22434
5.07200	22417
5.07267	22400
5.07333	22383
5.07400	22366
5.07467	22349
5.07533	22332
5.07600	22315
5.07667	22298
5.07733	22282
5.07800	22265
5.07867	22248
5.07933	22232
5.08000	22215
5.08067	22199
5.08133	22183
5.08200	22166
5.08267	22150
5.08333	22134
5.08400	22118
5.08467	22103
5.08533	22087
5.08600	22072
5.08667	22057
5.08733	22042
5.08800	22027
5.08867	22012
5.08933	21998
5.09000	21984
5.09067	21970
5.09133	21956
5.09200	21942
5.09267	21928
5.09333	21915
5.09400	21901
5.09467	21888
5.09533	21875
5.09600	21862
5.09667	21849
5.09733	21836
5.09800	21823
5.09867	21811
5.09933	21798
5.10000	21786
5.10067	21773
5.10133	21761
5.10200	21749
5.10267	21737
5.10333	21724
5.10400	21712
5.10467	21700
5.10533	21688
5.10600	21677
5.10667	21665
5.10733	21653
5.10800	21641
5.10867	21629
5.10933	21618
5.11000	21606
5.11067	21594
5.11133	21582
5.11200	21570
5.11267	21559
5.11333	21547
5.11400	21535
5.11467	21523
5.11533	21512
5.11600	21500
5.11667	21488
5.11733	21477
5.11800	21466
5.11867	21454
5.11933	21443
5.12000	21432
5.12067	21420
5.12133	21409
5.12200	21398
5.12267	21386
5.12333	21375
5.12400	21364
5.12467	21352
5.12533	21341
5.12600	21329
5.12667	21317
5.12733	21306
5.12800	21294
5.12867	21283
5.12933	21271
5.13000	21259
5.13067	21248
5.13133	21236
5.13200	21225
5.13267	21213
5.13333	21202
5.13400	21191
5.13467	21180
5.13533	21170
5.13600	21159
5.13667	21149
5.13733	21138
5.13800	21128
5.13867	21118
5.13933	21108
5.14000	21098
5.14067	21088
5.14133	21078
5.14200	21068
5.14267	21058
5.14333	21048
5.14400	21038
5.14467	21028
5.14533	21018
5.14600	21008
5.14667	20998
5.14733	20989
5.14800	20979
5.14867	20970
5.14933	20960
5.15000	20951
5.15067	20942
5.15133	20933
5.15200	20924
5.15267	20916
5.15333	20907
5.15400	20899
5.15467	20891
5.15533	20883
5.15600	20876
5.15667	20868
5.15733	20861
5.15800	20854
5.15867	20848
5.15933	20842
5.16000	20836
5.16067	20830
5.16133	20824
5.16200	20819
5.16267	20813
5.16333	20808
5.16400	20803
5.16467	20798
5.16533	20794
5.16600	20789
5.16667	20785
5.16733	20782
5.16800	20778
5.16867	20775
5.16933	20772
5.17000	20770
5.17067	20768
5.17133	20766
5.17200	20764
5.17267	20763
5.17333	20762
5.17400	20761
5.17467	20761
5.17533	20761
5.17600	20761
5.17667	20762
5.17733	20763
5.17800	20764
5.17867	20766
5.17933	20768
5.18000	20770
5.18067	20773
5.18133	20776
5.18200	20779
5.18267	20782
5.18333	20785
5.18400	20789
5.18467	20793
5.18533	20797
5.18600	20801
5.18667	20805
5.18733	20810
5.18800	20814
5.18867	20818
5.18933	20823
5.19000	20827
5.19067	20832
5.19133	20836
5.19200	20841
5.19267	20846
5.19333	20851
5.19400	20855
5.19467	20860
5.19533	20865
5.19600	20869
5.19667	20874
5.19733	20879
5.19800	20884
5.19867	20888
5.19933	20893
5.20000	20898
5.20067	20902
5.20133	20906
5.20200	20911
5.20267	20915
5.20333	20920
5.20400	20924
5.20467	20928
5.20533	20932
5.20600	20936
5.20667	20940
5.20733	20944
5.20800	20948
5.20867	20951
5.20933	20955
5.21000	20958
5.21067	20961
5.21133	20964
5.21200	20966
5.21267	20969
5.21333	20971
5.21400	20973
5.21467	20975
5.21533	20976
5.21600	20977
5.21667	20978
5.21733	20979
5.21800	20979
5.21867	20980
5.21933	20980
5.22000	20980
5.22067	20979
5.22133	20979
5.22200	20978
5.22267	20977
5.22333	20975
5.22400	20974
5.22467	20972
5.22533	20969
5.22600	20967
5.22667	20964
5.22733	20961
5.22800	20958
5.22867	20954
5.22933	20950
5.23000	20946
5.23067	20942
5.23133	20937
5.23200	20931
5.23267	20926
5.23333	20920
5.23400	20914
5.23467	20907
5.23533	20901
5.23600	20893
5.23667	20886
5.23733	20878
5.23800	20870
5.23867	20862
5.23933	20854
5.24000	20845
5.24067	20836
5.24133	20827
5.24200	20818
5.24267	20808
5.24333	20798
5.24400	20788
5.24467	20778
5.24533	20767
5.24600	20756
5.24667	20745
5.24733	20734
5.24800	20723
5.24867	20711
5.24933	20699
5.25000	20687
5.25067	20675
5.25133	20663
5.25200	20650
5.25267	20637
5.25333	20624
5.25400	20611
5.25467	20597
5.25533	20583
5.25600	20569
5.25667	20555
5.25733	20541
5.25800	20526
5.25867	20511
5.25933	20497
5.26000	20482
5.26067	20466
5.26133	20451
5.26200	20436
5.26267	20420
5.26333	20405
5.26400	20389
5.26467	20373
5.26533	20358
5.26600	20341
5.26667	20325
5.26733	20309
5.26800	20293
5.26867	20277
5.26933	20260
5.27000	20244
5.27067	20228
5.27133	20211
5.27200	20195
5.27267	20178
5.27333	20162
5.27400	20145
5.27467	20129
5.27533	20112
5.27600	20095
5.27667	20079
5.27733	20062
5.27800	20046
5.27867	20029
5.27933	20013
5.28000	19996
5.28067	19980
5.28133	19963
5.28200	19947
5.28267	19930
5.28333	19914
5.28400	19897
5.28467	19880
5.28533	19863
5.28600	19846
5.28667	19829
5.28733	19812
5.28800	19795
5.28867	19777
5.28933	19760
5.29000	19742
5.29067	19725
5.29133	19707
5.29200	19690
5.29267	19672
5.29333	19654
5.29400	19637
5.29467	19619
5.29533	19601
5.29600	19584
5.29667	19566
5.29733	19549
5.29800	19532
5.29867	19514
5.29933	19497
5.30000	19480
5.30067	19463
5.30133	19445
5.30200	19428
5.30267	19411
5.30333	19394
5.30400	19378
5.30467	19361
5.30533	19344
5.30600	19328
5.30667	19311
5.30733	19295
5.30800	19278
5.30867	19262
5.30933	19246
5.31000	19230
5.31067	19214
5.31133	19198
5.31200	19182
5.31267	19166
5.31333	19150
5.31400	19133
5.31467	19117
5.31533	19101
5.31600	19085
5.31667	19069
5.31733	19053
5.31800	19037
5.31867	19021
5.31933	19005
5.32000	18989
5.32067	18974
5.32133	18958
5.32200	18943
5.32267	18927
5.32333	18912
5.32400	18896
5.32467	18881
5.32533	18866
5.32600	18851
5.32667	18836
5.32733	18821
5.32800	18806
5.32867	18791
5.32933	18776
5.33000	18762
5.33067	18747
5.33133	18732
5.33200	18718
5.33267	18704
5.33333	18689
5.33400	18675
5.33467	18660
5.33533	18646
5.33600	18632
5.33667	18618
5.33733	18603
5.33800	18589
5.33867	18575
5.33933	18560
5.34000	18546
5.34067	18531
5.34133	18517
5.34200	18502
5.34267	18488
5.34333	18473
5.34400	18459
5.34467	18444
5.34533	18429
5.34600	18414
5.34667	18399
5.34733	18384
5.34800	18369
5.34867	18354
5.34933	18339
5.35000	18324
5.35067	18308
5.35133	18293
5.35200	18278
5.35267	18263
5.35333	18247
5.35400	18232
5.35467	18217
5.35533	18202
5.35600	18186
5.35667	18171
5.35733	18156
5.35800	18141
5.35867	18126
5.35933	18110
5.36000	18095
5.36067	18080
5.36133	18065
5.36200	18050
5.36267	18035
5.36333	18020
5.36400	18005
5.36467	17990
5.36533	17975
5.36600	17961
5.36667	17946
5.36733	17931
5.36800	17916
5.36867	17902
5.36933	17887
5.37000	17872
5.37067	17858
5.37133	17843
5.37200	17829
5.37267	17814
5.37333	17799
5.37400	17785
5.37467	17770
5.37533	17755
5.37600	17741
5.37667	17726
5.37733	17711
5.37800	17696
5.37867	17681
5.37933	17666
5.38000	17650
5.38067	17635
5.38133	17620
5.38200	17605
5.38267	17589
5.38333	17574
5.38400	17559
5.38467	17543
5.38533	17528
5.38600	17513
5.38667	17497
5.38733	17482
5.38800	17466
5.38867	17451
5.38933	17435
5.39000	17420
5.39067	17404
5.39133	17388
5.39200	17373
5.39267	17357
5.39333	17341
5.39400	17326
5.39467	17310
5.39533	17294
5.39600	17279
5.39667	17263
5.39733	17247
5.39800	17232
5.39867	17217
5.39933	17201
5.40000	17186
5.40067	17171
5.40133	17157
5.40200	17142
5.40267	17128
5.40333	17113
5.40400	17099
5.40467	17085
5.40533	17072
5.40600	17058
5.40667	17045
5.40733	17031
5.40800	17018
5.40867	17005
5.40933	16992
5.41000	16979
5.41067	16967
5.41133	16954
5.41200	16942
5.41267	16929
5.41333	16917
5.41400	16905
5.41467	16893
5.41533	16880
5.41600	16868
5.41667	16856
5.41733	16844
5.41800	16832
5.41867	16820
5.41933	16808
5.42000	16796
5.42067	16784
5.42133	16772
5.42200	16761
5.42267	16749
5.42333	16737
5.42400	16725
5.42467	16713
5.42533	16701
5.42600	16689
5.42667	16677
5.42733	16665
5.42800	16653
5.42867	16641
5.42933	16630
5.43000	16618
5.43067	16606
5.43133	16594
5.43200	16582
5.43267	16570
5.43333	16558
5.43400	16546
5.43467	16534
5.43533	16522
5.43600	16510
5.43667	16498
5.43733	16486
5.43800	16473
5.43867	16461
5.43933	16449
5.44000	16437
5.44067	16424
5.44133	16412
5.44200	16400
5.44267	16387
5.44333	16375
5.44400	16362
5.44467	16350
5.44533	16337
5.44600	16324
5.44667	16312
5.44733	16299
5.44800	16286
5.44867	16274
5.44933	16261
5.45000	16248
5.45067	16236
5.45133	16223
5.45200	16210
5.45267	16198
5.45333	16186
5.45400	16173
5.45467	16161
5.45533	16149
5.45600	16136
5.45667	16124
5.45733	16111
5.45800	16099
5.45867	16087
5.45933	16075
5.46000	16062
5.46067	16050
5.46133	16038
5.46200	16026
5.46267	16014
5.46333	16002
5.46400	15990
5.46467	15978
5.46533	15966
5.46600	15954
5.46667	15942
5.46733	15930
5.46800	15918
5.46867	15906
5.46933	15894
5.47000	15882
5.47067	15870
5.47133	15859
5.47200	15847
5.47267	15835
5.47333	15824
5.47400	15812
5.47467	15801
5.47533	15789
5.47600	15778
5.47667	15766
5.47733	15755
5.47800	15744
5.47867	15733
5.47933	15721
5.48000	15710
5.48067	15699
5.48133	15688
5.48200	15677
5.48267	15666
5.48333	15655
5.48400	15645
5.48467	15634
5.48533	15624
5.48600	15614
5.48667	15604
5.48733	15594
5.48800	15584
5.48867	15575
5.48933	15565
5.49000	15555
5.49067	15546
5.49133	15537
5.49200	15527
5.49267	15518
5.49333	15509
5.49400	15500
5.49467	15491
5.49533	15482
5.49600	15473
5.49667	15464
5.49733	15455
5.49800	15447
5.49867	15438
5.49933	15430
5.50000	15421
5.50067	15412
5.50133	15404
5.50200	15395
5.50267	15387
5.50333	15378
5.50400	15370
5.50467	15361
5.50533	15352
5.50600	15344
5.50667	15335
5.50733	15326
5.50800	15318
5.50867	15309
5.50933	15300
5.51000	15291
5.51067	15283
5.51133	15274
5.51200	15265
5.51267	15256
5.51333	15247
5.51400	15239
5.51467	15230
5.51533	15221
5.51600	15212
5.51667	15203
5.51733	15195
5.51800	15186
5.51867	15177
5.51933	15168
5.52000	15159
5.52067	15151
5.52133	15142
5.52200	15133
5.52267	15125
5.52333	15116
5.52400	15107
5.52467	15098
5.52533	15090
5.52600	15081
5.52667	15072
5.52733	15064
5.52800	15055
5.52867	15047
5.52933	15038
5.53000	15029
5.53067	15021
5.53133	15012
5.53200	15003
5.53267	14995
5.53333	14986
5.53400	14978
5.53467	14969
5.53533	14961
5.53600	14952
5.53667	14944
5.53733	14935
5.53800	14926
5.53867	14918
5.53933	14909
5.54000	14900
5.54067	14891
5.54133	14882
5.54200	14874
5.54267	14865
5.54333	14856
5.54400	14847
5.54467	14838
5.54533	14829
5.54600	14820
5.54667	14811
5.54733	14802
5.54800	14793
5.54867	14785
5.54933	14776
5.55000	14767
5.55067	14759
5.55133	14750
5.55200	14742
5.55267	14733
5.55333	14725
5.55400	14716
5.55467	14707
5.55533	14699
5.55600	14691
5.55667	14682
5.55733	14674
5.55800	14666
5.55867	14657
5.55933	14649
5.56000	14641
5.56067	14633
5.56133	14626
5.56200	14618
5.56267	14610
5.56333	14602
5.56400	14595
5.56467	14587
5.56533	14579
5.56600	14572
5.56667	14565
5.56733	14557
5.56800	14550
5.56867	14543
5.56933	14536
5.57000	14529
5.57067	14522
5.57133	14516
5.57200	14509
5.57267	14502
5.57333	14496
5.57400	14490
5.57467	14483
5.57533	14477
5.57600	14470
5.57667	14464
5.57733	14458
5.57800	14452
5.57867	14445
5.57933	14439
5.58000	14433
5.58067	14426
5.58133	14420
5.58200	14414
5.58267	14407
5.58333	14401
5.58400	14394
5.58467	14388
5.58533	14381
5.58600	14375
5.58667	14368
5.58733	14362
5.58800	14355
5.58867	14349
5.58933	14342
5.59000	14335
5.59067	14329
5.59133	14322
5.59200	14316
5.59267	14309
5.59333	14303
5.59400	14296
5.59467	14290
5.59533	14283
5.59600	14276
5.59667	14270
5.59733	14263
5.59800	14257
5.59867	14250
5.59933	14244
5.60000	14237
5.60067	14231
5.60133	14225
5.60200	14218
5.60267	14212
5.60333	14206
5.60400	14200
5.60467	14194
5.60533	14187
5.60600	14181
5.60667	14175
5.60733	14169
5.60800	14163
5.60867	14157
5.60933	14150
5.61000	14144
5.61067	14138
5.61133	14132
5.61200	14126
5.61267	14120
5.61333	14113
5.61400	14107
5.61467	14100
5.61533	14094
5.61600	14087
5.61667	14081
5.61733	14074
5.61800	14067
5.61867	14061
5.61933	14054
5.62000	14048
5.62067	14041
5.62133	14035
5.62200	14028
5.62267	14021
5.62333	14015
5.62400	14008
5.62467	14002
5.62533	13995
5.62600	13989
5.62667	13982
5.62733	13975
5.62800	13969
5.62867	13962
5.62933	13956
5.63000	13949
5.63067	13942
5.63133	13936
5.63200	13929
5.63267	13922
5.63333	13915
5.63400	13908
5.63467	13901
5.63533	13894
5.63600	13888
5.63667	13881
5.63733	13874
5.63800	13867
5.63867	13860
5.63933	13854
5.64000	13847
5.64067	13840
5.64133	13834
5.64200	13827
5.64267	13820
5.64333	13814
5.64400	13807
5.64467	13801
5.64533	13794
5.64600	13787
5.64667	13781
5.64733	13774
5.64800	13767
5.64867	13761
5.64933	13754
5.65000	13747
5.65067	13741
5.65133	13734
5.65200	13727
5.65267	13721
5.65333	13714
5.65400	13707
5.65467	13701
5.65533	13694
5.65600	13687
5.65667	13681
5.65733	13674
5.65800	13667
5.65867	13661
5.65933	13654
5.66000	13648
5.66067	13641
5.66133	13635
5.66200	13628
5.66267	13622
5.66333	13616
5.66400	13609
5.66467	13603
5.66533	13597
5.66600	13591
5.66667	13585
5.66733	13579
5.66800	13573
5.66867	13567
5.66933	13561
5.67000	13555
5.67067	13549
5.67133	13543
5.67200	13537
5.67267	13531
5.67333	13526
5.67400	13520
5.67467	13514
5.67533	13508
5.67600	13502
5.67667	13496
5.67733	13491
5.67800	13485
5.67867	13479
5.67933	13473
5.68000	13467
5.68067	13462
5.68133	13456
5.68200	13450
5.68267	13444
5.68333	13438
5.68400	13432
5.68467	13426
5.68533	13420
5.68600	13415
5.68667	13409
5.68733	13403
5.68800	13397
5.68867	13391
5.68933	13386
5.69000	13380
5.69067	13374
5.69133	13368
5.69200	13362
5.69267	13357
5.69333	13351
5.69400	13345
5.69467	13340
5.69533	13334
5.69600	13328
5.69667	13322
5.69733	13317
5.69800	13311
5.69867	13305
5.69933	13299
5.70000	13293
5.70067	13287
5.70133	13281
5.70200	13275
5.70267	13269
5.70333	13263
5.70400	13258
5.70467	13252
5.70533	13246
5.70600	13240
5.70667	13234
5.70733	13228
5.70800	13223
5.70867	13217
5.70933	13211
5.71000	13206
5.71067	13201
5.71133	13195
5.71200	13190
5.71267	13185
5.71333	13179
5.71400	13174
5.71467	13169
5.71533	13164
5.71600	13159
5.71667	13154
5.71733	13149
5.71800	13144
5.71867	13139
5.71933	13134
5.72000	13129
5.72067	13124
5.72133	13119
5.72200	13114
5.72267	13109
5.72333	13104
5.72400	13099
5.72467	13094
5.72533	13090
5.72600	13085
5.72667	13080
5.72733	13076
5.72800	13071
5.72867	13066
5.72933	13062
5.73000	13058
5.73067	13053
5.73133	13049
5.73200	13044
5.73267	13040
5.73333	13036
5.73400	13031
5.73467	13027
5.73533	13023
5.73600	13019
5.73667	13015
5.73733	13010
5.73800	13006
5.73867	13002
5.73933	12998
5.74000	12995
5.74067	12991
5.74133	12987
5.74200	12983
5.74267	12979
5.74333	12976
5.74400	12972
5.74467	12969
5.74533	12965
5.74600	12962
5.74667	12958
5.74733	12955
5.74800	12951
5.74867	12948
5.74933	12945
5.75000	12942
5.75067	12939
5.75133	12935
5.75200	12932
5.75267	12929
5.75333	12926
5.75400	12923
5.75467	12921
5.75533	12918
5.75600	12915
5.75667	12912
5.75733	12909
5.75800	12907
5.75867	12904
5.75933	12901
5.76000	12898
5.76067	12895
5.76133	12892
5.76200	12890
5.76267	12887
5.76333	12884
5.76400	12881
5.76467	12878
5.76533	12875
5.76600	12872
5.76667	12870
5.76733	12867
5.76800	12864
5.76867	12861
5.76933	12858
5.77000	12855
5.77067	12853
5.77133	12850
5.77200	12847
5.77267	12845
5.77333	12842
5.77400	12839
5.77467	12837
5.77533	12834
5.77600	12831
5.77667	12829
5.77733	12826
5.77800	12824
5.77867	12821
5.77933	12819
5.78000	12817
5.78067	12814
5.78133	12812
5.78200	12810
5.78267	12807
5.78333	12805
5.78400	12803
5.78467	12800
5.78533	12798
5.78600	12796
5.78667	12794
5.78733	12791
5.78800	12789
5.78867	12787
5.78933	12785
5.79000	12783
5.79067	12781
5.79133	12779
5.79200	12777
5.79267	12775
5.79333	12774
5.79400	12772
5.79467	12770
5.79533	12768
5.79600	12767
5.79667	12765
5.79733	12763
5.79800	12762
5.79867	12760
5.79933	12759
5.80000	12758
5.80067	12756
5.80133	12755
5.80200	12754
5.80267	12752
5.80333	12751
5.80400	12750
5.80467	12749
5.80533	12748
5.80600	12747
5.80667	12746
5.80733	12745
5.80800	12744
5.80867	12744
5.80933	12743
5.81000	12742
5.81067	12742
5.81133	12741
5.81200	12741
5.81267	12740
5.81333	12740
5.81400	12739
5.81467	12739
5.81533	12739
5.81600	12738
5.81667	12738
5.81733	12738
5.81800	12738
5.81867	12738
5.81933	12738
5.82000	12738
5.82067	12738
5.82133	12738
5.82200	12738
5.82267	12738
5.82333	12738
5.82400	12738
5.82467	12739
5.82533	12739
5.82600	12739
5.82667	12740
5.82733	12740
5.82800	12740
5.82867	12741
5.82933	12741
5.83000	12741
5.83067	12742
5.83133	12742
5.83200	12742
5.83267	12743
5.83333	12743
5.83400	12743
5.83467	12743
5.83533	12743
5.83600	12743
5.83667	12743
5.83733	12743
5.83800	12743
5.83867	12743
5.83933	12743
5.84000	12743
5.84067	12742
5.84133	12742
5.84200	12742
5.84267	12742
5.84333	12742
5.84400	12741
5.84467	12741
5.84533	12741
5.84600	12740
5.84667	12740
5.84733	12739
5.84800	12739
5.84867	12738
5.84933	12738
5.85000	12737
5.85067	12737
5.85133	12736
5.85200	12735
5.85267	12735
5.85333	12734
5.85400	12733
5.85467	12732
5.85533	12732
5.85600	12731
5.85667	12730
5.85733	12729
5.85800	12727
5.85867	12726
5.85933	12725
5.86000	12724
5.86067	12722
5.86133	12721
5.86200	12719
5.86267	12717
5.86333	12716
5.86400	12714
5.86467	12712
5.86533	12710
5.86600	12708
5.86667	12706
5.86733	12704
5.86800	12701
5.86867	12699
5.86933	12697
5.87000	12695
5.87067	12692
5.87133	12690
5.87200	12688
5.87267	12685
5.87333	12683
5.87400	12681
5.87467	12678
5.87533	12676
5.87600	12673
5.87667	12671
5.87733	12668
5.87800	12666
5.87867	12663
5.87933	12660
5.88000	12657
5.88067	12654
5.88133	12651
5.88200	12648
5.88267	12645
5.88333	12642
5.88400	12639
5.88467	12635
5.88533	12632
5.88600	12629
5.88667	12625
5.88733	12622
5.88800	12618
5.88867	12614
5.88933	12611
5.89000	12607
5.89067	12603
5.89133	12600
5.89200	12596
5.89267	12592
5.89333	12588
5.89400	12584
5.89467	12580
5.89533	12576
5.89600	12572
5.89667	12568
5.89733	12564
5.89800	12559
5.89867	12555
5.89933	12551
5.90000	12547
5.90067	12543
5.90133	12538
5.90200	12534
5.90267	12530
5.90333	12526
5.90400	12521
5.90467	12517
5.90533	12512
5.90600	12508
5.90667	12503
5.90733	12499
5.90800	12494
5.90867	12490
5.90933	12485
5.91000	12481
5.91067	12476
5.91133	12471
5.91200	12467
5.91267	12462
5.91333	12458
5.91400	12453
5.91467	12448
5.91533	12444
5.91600	12439
5.91667	12434
5.91733	12429
5.91800	12424
5.91867	12419
5.91933	12415
5.92000	12410
5.92067	12405
5.92133	12400
5.92200	12395
5.92267	12390
5.92333	12384
5.92400	12379
5.92467	12374
5.92533	12369
5.92600	12364
5.92667	12358
5.92733	12353
5.92800	12348
5.92867	12342
5.92933	12337
5.93000	12332
5.93067	12326
5.93133	12321
5.93200	12315
5.93267	12310
5.93333	12304
5.93400	12299
5.93467	12294
5.93533	12288
5.93600	12283
5.93667	12277
5.93733	12272
5.93800	12266
5.93867	12260
5.93933	12255
5.94000	12249
5.94067	12243
5.94133	12238
5.94200	12232
5.94267	12227
5.94333	12221
5.94400	12216
5.94467	12210
5.94533	12205
5.94600	12199
5.94667	12194
5.94733	12188
5.94800	12183
5.94867	12177
5.94933	12172
5.95000	12166
5.95067	12161
5.95133	12156
5.95200	12151
5.95267	12146
5.95333	12140
5.95400	12135
5.95467	12130
5.95533	12125
5.95600	12121
5.95667	12116
5.95733	12111
5.95800	12106
5.95867	12101
5.95933	12096
5.96000	12091
5.96067	12086
5.96133	12082
5.96200	12077
5.96267	12073
5.96333	12068
5.96400	12064
5.96467	12059
5.96533	12055
5.96600	12050
5.96667	12046
5.96733	12042
5.96800	12037
5.96867	12033
5.96933	12029
5.97000	12025
5.97067	12020
5.97133	12016
5.97200	12012
5.97267	12008
5.97333	12004
5.97400	12000
5.97467	11996
5.97533	11992
5.97600	11988
5.97667	11983
5.97733	11980
5.97800	11976
5.97867	11972
5.97933	11968
5.98000	11964
5.98067	11960
5.98133	11956
5.98200	11953
5.98267	11949
5.98333	11945
5.98400	11941
5.98467	11937
5.98533	11933
5.98600	11929
5.98667	11925
5.98733	11922
5.98800	11918
5.98867	11914
5.98933	11910
5.99000	11906
5.99067	11902
5.99133	11898
5.99200	11894
5.99267	11890
5.99333	11886
5.99400	11882
5.99467	11878
5.99533	11874
5.99600	11870
5.99667	11866
5.99733	11863
5.99800	11859
5.99867	11855
5.99933	11851
6.00000	11848
6.00067	11844
6.00133	11841
6.00200	11838
6.00267	11834
6.00333	11831
6.00400	11827
6.00467	11824
6.00533	11821
6.00600	11817
6.00667	11814
6.00733	11811
6.00800	11807
6.00867	11804
6.00933	11800
6.01000	11797
6.01067	11794
6.01133	11790
6.01200	11787
6.01267	11784
6.01333	11780
6.01400	11777
6.01467	11773
6.01533	11770
6.01600	11767
6.01667	11764
6.01733	11760
6.01800	11757
6.01867	11754
6.01933	11751
6.02000	11747
6.02067	11744
6.02133	11741
6.02200	11738
6.02267	11735
6.02333	11732
6.02400	11729
6.02467	11726
6.02533	11723
6.02600	11720
6.02667	11717
6.02733	11714
6.02800	11711
6.02867	11708
6.02933	11706
6.03000	11703
6.03067	11700
6.03133	11697
6.03200	11694
6.03267	11691
6.03333	11688
6.03400	11685
6.03467	11682
6.03533	11679
6.03600	11676
6.03667	11673
6.03733	11670
6.03800	11667
6.03867	11665
6.03933	11662
6.04000	11659
6.04067	11656
6.04133	11653
6.04200	11650
6.04267	11647
6.04333	11644
6.04400	11641
6.04467	11639
6.04533	11636
6.04600	11633
6.04667	11630
6.04733	11627
6.04800	11624
6.04867	11621
6.04933	11618
6.05000	11615
6.05067	11612
6.05133	11609
6.05200	11607
6.05267	11604
6.05333	11601
6.05400	11598
6.05467	11595
6.05533	11592
6.05600	11589
6.05667	11586
6.05733	11583
6.05800	11580
6.05867	11577
6.05933	11574
6.06000	11571
6.06067	11568
6.06133	11565
6.06200	11562
6.06267	11558
6.06333	11555
6.06400	11552
6.06467	11549
6.06533	11546
6.06600	11542
6.06667	11539
6.06733	11536
6.06800	11533
6.06867	11529
6.06933	11526
6.07000	11523
6.07067	11520
6.07133	11517
6.07200	11513
6.07267	11510
6.07333	11507
6.07400	11504
6.07467	11501
6.07533	11498
6.07600	11495
6.07667	11492
6.07733	11489
6.07800	11486
6.07867	11483
6.07933	11481
6.08000	11478
6.08067	11475
6.08133	11472
6.08200	11469
6.08267	11466
6.08333	11464
6.08400	11461
6.08467	11458
6.08533	11455
6.08600	11453
6.08667	11450
6.08733	11447
6.08800	11444
6.08867	11442
6.08933	11439
6.09000	11436
6.09067	11434
6.09133	11431
6.09200	11428
6.09267	11425
6.09333	11422
6.09400	11419
6.09467	11417
6.09533	11414
6.09600	11411
6.09667	11408
6.09733	11405
6.09800	11402
6.09867	11399
6.09933	11396
6.10000	11394
6.10067	11391
6.10133	11388
6.10200	11385
6.10267	11382
6.10333	11379
6.10400	11376
6.10467	11373
6.10533	11371
6.10600	11368
6.10667	11365
6.10733	11362
6.10800	11359
6.10867	11357
6.10933	11354
6.11000	11351
6.11067	11348
6.11133	11346
6.11200	11343
6.11267	11340
6.11333	11337
6.11400	11335
6.11467	11332
6.11533	11329
6.11600	11327
6.11667	11324
6.11733	11322
6.11800	11319
6.11867	11317
6.11933	11314
6.12000	11312
6.12067	11309
6.12133	11307
6.12200	11304
6.12267	11302
6.12333	11299
6.12400	11297
6.12467	11295
6.12533	11292
6.12600	11290
6.12667	11287
6.12733	11285
6.12800	11283
6.12867	11281
6.12933	11278
6.13000	11276
6.13067	11274
6.13133	11272
6.13200	11270
6.13267	11268
6.13333	11266
6.13400	11264
6.13467	11262
6.13533	11261
6.13600	11259
6.13667	11257
6.13733	11255
6.13800	11253
6.13867	11251
6.13933	11249
6.14000	11247
6.14067	11245
6.14133	11243
6.14200	11242
6.14267	11240
6.14333	11238
6.14400	11236
6.14467	11234
6.14533	11232
6.14600	11230
6.14667	11228
6.14733	11226
6.14800	11224
6.14867	11222
6.14933	11219
6.15000	11217
6.15067	11215
6.15133	11213
6.15200	11211
6.15267	11209
6.15333	11207
6.15400	11205
6.15467	11203
6.15533	11201
6.15600	11199
6.15667	11197
6.15733	11194
6.15800	11192
6.15867	11190
6.15933	11188
6.16000	11186
6.16067	11184
6.16133	11182
6.16200	11180
6.16267	11177
6.16333	11175
6.16400	11173
6.16467	11171
6.16533	11169
6.16600	11167
6.16667	11165
6.16733	11163
6.16800	11161
6.16867	11159
6.16933	11158
6.17000	11156
6.17067	11154
6.17133	11152
6.17200	11150
6.17267	11148
6.17333	11146
6.17400	11145
6.17467	11143
6.17533	11141
6.17600	11139
6.17667	11138
6.17733	11136
6.17800	11134
6.17867	11133
6.17933	11131
6.18000	11130
6.18067	11128
6.18133	11127
6.18200	11126
6.18267	11124
6.18333	11123
6.18400	11122
6.18467	11121
6.18533	11119
6.18600	11118
6.18667	11117
6.18733	11116
6.18800	11115
6.18867	11114
6.18933	11113
6.19000	11112
6.19067	11110
6.19133	11109
6.19200	11108
6.19267	11107
6.19333	11106
6.19400	11105
6.19467	11103
6.19533	11102
6.19600	11101
6.19667	11100
6.19733	11098
6.19800	11097
6.19867	11096
6.19933	11095
6.20000	11093
6.20067	11092
6.20133	11091
6.20200	11089
6.20267	11088
6.20333	11087
6.20400	11085
6.20467	11084
6.20533	11083
6.20600	11081
6.20667	11080
6.20733	11078
6.20800	11077
6.20867	11076
6.20933	11074
6.21000	11073
6.21067	11071
6.21133	11070
6.21200	11069
6.21267	11067
6.21333	11066
6.21400	11065
6.21467	11064
6.21533	11062
6.21600	11061
6.21667	11060
6.21733	11059
6.21800	11058
6.21867	11057
6.21933	11056
6.22000	11055
6.22067	11053
6.22133	11052
6.22200	11051
6.22267	11050
6.22333	11049
6.22400	11048
6.22467	11047
6.22533	11046
6.22600	11045
6.22667	11043
6.22733	11042
6.22800	11041
6.22867	11040
6.22933	11038
6.23000	11037
6.23067	11036
6.23133	11035
6.23200	11034
6.23267	11033
6.23333	11031
6.23400	11030
6.23467	11029
6.23533	11028
6.23600	11027
6.23667	11026
6.23733	11025
6.23800	11024
6.23867	11023
6.23933	11022
6.24000	11022
6.24067	11021
6.24133	11020
6.24200	11019
6.24267	11019
6.24333	11018
6.24400	11017
6.24467	11016
6.24533	11016
6.24600	11015
6.24667	11014
6.24733	11013
6.24800	11013
6.24867	11012
6.24933	11011
6.25000	11010
6.25067	11009
6.25133	11009
6.25200	11008
6.25267	11007
6.25333	11006
6.25400	11005
6.25467	11005
6.25533	11004
6.25600	11003
6.25667	11002
6.25733	11002
6.25800	11001
6.25867	11000
6.25933	11000
6.26000	10999
6.26067	10998
6.26133	10998
6.26200	10997
6.26267	10996
6.26333	10996
6.26400	10995
6.26467	10995
6.26533	10994
6.26600	10994
6.26667	10993
6.26733	10992
6.26800	10992
6.26867	10991
6.26933	10990
6.27000	10990
6.27067	10989
6.27133	10989
6.27200	10988
6.27267	10987
6.27333	10987
6.27400	10986
6.27467	10985
6.27533	10985
6.27600	10984
6.27667	10983
6.27733	10983
6.27800	10982
6.27867	10981
6.27933	10980
6.28000	10980
6.28067	10979
6.28133	10978
6.28200	10978
6.28267	10977
6.28333	10977
6.28400	10977
6.28467	10976
6.28533	10976
6.28600	10976
6.28667	10975
6.28733	10975
6.28800	10975
6.28867	10974
6.28933	10974
6.29000	10974
6.29067	10973
6.29133	10973
6.29200	10972
6.29267	10972
6.29333	10972
6.29400	10971
6.29467	10971
6.29533	10970
6.29600	10970
6.29667	10970
6.29733	10969
6.29800	10969
6.29867	10968
6.29933	10968
6.30000	10967
6.30067	10967
6.30133	10966
6.30200	10966
6.30267	10965
6.30333	10965
6.30400	10964
6.30467	10964
6.30533	10963
6.30600	10963
6.30667	10962
6.30733	10961
6.30800	10961
6.30867	10960
6.30933	10960
6.31000	10959
6.31067	10958
6.31133	10957
6.31200	10957
6.31267	10956
6.31333	10955
6.31400	10954
6.31467	10953
6.31533	10953
6.31600	10952
6.31667	10951
6.31733	10950
6.31800	10949
6.31867	10948
6.31933	10947
6.32000	10946
6.32067	10945
6.32133	10944
6.32200	10944
6.32267	10943
6.32333	10942
6.32400	10941
6.32467	10940
6.32533	10939
6.32600	10938
6.32667	10937
6.32733	10936
6.32800	10935
6.32867	10934
6.32933	10933
6.33000	10932
6.33067	10931
6.33133	10930
6.33200	10929
6.33267	10928
6.33333	10927
6.33400	10926
6.33467	10925
6.33533	10924
6.33600	10923
6.33667	10922
6.33733	10921
6.33800	10920
6.33867	10919
6.33933	10918
6.34000	10917
6.34067	10916
6.34133	10916
6.34200	10915
6.34267	10914
6.34333	10913
6.34400	10912
6.34467	10911
6.34533	10910
6.34600	10909
6.34667	10908
6.34733	10907
6.34800	10906
6.34867	10906
6.34933	10905
6.35000	10904
6.35067	10903
6.35133	10902
6.35200	10902
6.35267	10901
6.35333	10900
6.35400	10899
6.35467	10899
6.35533	10898
6.35600	10897
6.35667	10897
6.35733	10896
6.35800	10895
6.35867	10895
6.35933	10894
6.36000	10893
6.36067	10893
6.36133	10892
6.36200	10892
6.36267	10891
6.36333	10890
6.36400	10890
6.36467	10889
6.36533	10888
6.36600	10888
6.36667	10887
6.36733	10886
6.36800	10885
6.36867	10884
6.36933	10883
6.37000	10882
6.37067	10881
6.37133	10880
6.37200	10879
6.37267	10878
6.37333	10877
6.37400	10876
6.37467	10875
6.37533	10874
6.37600	10872
6.37667	10871
6.37733	10870
6.37800	10869
6.37867	10867
6.37933	10866
6.38000	10865
6.38067	10864
6.38133	10862
6.38200	10861
6.38267	10860
6.38333	10859
6.38400	10857
6.38467	10856
6.38533	10855
6.38600	10853
6.38667	10852
6.38733	10851
6.38800	10849
6.38867	10848
6.38933	10847
6.39000	10845
6.39067	10844
6.39133	10842
6.39200	10841
6.39267	10840
6.39333	10838
6.39400	10837
6.39467	10836
6.39533	10834
6.39600	10833
6.39667	10832
6.39733	10830
6.39800	10828
6.39867	10828
6.39933	10826

