[Header]
Application Name	LabSolutions
Version	5.73
Data File Name	C:\LabSolutions\Data\Project1\stephen\2016-01-04\21.gcd
Output Date	1/5/2016
Output Time	4:51:32 PM

[Configuration]
Instrument Name	WEISSTA-PC-Instrument1
Instrument #	1
Line #	1
# of Detectors	1
Detector ID	DET#2
Detector Name	DFID1
# of Channels	1

[Chromatogram (Ch1)]
Interval(msec)	40
# of Points	9599
Start Time(min)	0.001
End Time(min)	6.399
R.Time (min)	Intensity
0.00067	13
0.00133	14
0.00200	14
0.00267	14
0.00333	14
0.00400	14
0.00467	14
0.00533	15
0.00600	15
0.00667	16
0.00733	16
0.00800	17
0.00867	17
0.00933	18
0.01000	19
0.01067	19
0.01133	20
0.01200	21
0.01267	21
0.01333	22
0.01400	22
0.01467	23
0.01533	23
0.01600	24
0.01667	24
0.01733	25
0.01800	25
0.01867	25
0.01933	25
0.02000	24
0.02067	24
0.02133	24
0.02200	23
0.02267	23
0.02333	22
0.02400	22
0.02467	21
0.02533	20
0.02600	19
0.02667	18
0.02733	17
0.02800	16
0.02867	15
0.02933	14
0.03000	13
0.03067	12
0.03133	11
0.03200	11
0.03267	10
0.03333	9
0.03400	8
0.03467	7
0.03533	6
0.03600	6
0.03667	5
0.03733	4
0.03800	4
0.03867	3
0.03933	2
0.04000	2
0.04067	1
0.04133	1
0.04200	0
0.04267	0
0.04333	-1
0.04400	-1
0.04467	-1
0.04533	-2
0.04600	-2
0.04667	-3
0.04733	-3
0.04800	-3
0.04867	-4
0.04933	-4
0.05000	-5
0.05067	-5
0.05133	-5
0.05200	-6
0.05267	-6
0.05333	-6
0.05400	-7
0.05467	-7
0.05533	-7
0.05600	-7
0.05667	-8
0.05733	-8
0.05800	-8
0.05867	-8
0.05933	-8
0.06000	-9
0.06067	-9
0.06133	-9
0.06200	-9
0.06267	-9
0.06333	-9
0.06400	-9
0.06467	-9
0.06533	-9
0.06600	-10
0.06667	-10
0.06733	-10
0.06800	-10
0.06867	-10
0.06933	-10
0.07000	-10
0.07067	-10
0.07133	-10
0.07200	-10
0.07267	-10
0.07333	-10
0.07400	-10
0.07467	-10
0.07533	-10
0.07600	-10
0.07667	-11
0.07733	-11
0.07800	-11
0.07867	-11
0.07933	-11
0.08000	-11
0.08067	-11
0.08133	-11
0.08200	-11
0.08267	-11
0.08333	-11
0.08400	-10
0.08467	-7
0.08533	7
0.08600	30
0.08667	66
0.08733	126
0.08800	227
0.08867	370
0.08933	554
0.09000	827
0.09067	1148
0.09133	1505
0.09200	1909
0.09267	2343
0.09333	2810
0.09400	3342
0.09467	3911
0.09533	4527
0.09600	5201
0.09667	5900
0.09733	6613
0.09800	7391
0.09867	8240
0.09933	9145
0.10000	10080
0.10067	11064
0.10133	12146
0.10200	13295
0.10267	14478
0.10333	15656
0.10400	16823
0.10467	17985
0.10533	19165
0.10600	20366
0.10667	21602
0.10733	22879
0.10800	24157
0.10867	25434
0.10933	26692
0.11000	27876
0.11067	29005
0.11133	30159
0.11200	31306
0.11267	32431
0.11333	33492
0.11400	34520
0.11467	35505
0.11533	36411
0.11600	37222
0.11667	37948
0.11733	38605
0.11800	39192
0.11867	39736
0.11933	40263
0.12000	40780
0.12067	41255
0.12133	41668
0.12200	42048
0.12267	42401
0.12333	42736
0.12400	43027
0.12467	43255
0.12533	43429
0.12600	43561
0.12667	43646
0.12733	43695
0.12800	43713
0.12867	43686
0.12933	43626
0.13000	43651
0.13067	44158
0.13133	46681
0.13200	55390
0.13267	79965
0.13333	139562
0.13400	266585
0.13467	502828
0.13533	893783
0.13600	1480518
0.13667	2297449
0.13733	3369064
0.13800	4711278
0.13867	6331845
0.13933	8233131
0.14000	10412823
0.14067	12867042
0.14133	15588764
0.14200	18567843
0.14267	21798800
0.14333	25289763
0.14400	29049078
0.14467	33074756
0.14533	37353138
0.14600	41863343
0.14667	46579700
0.14733	51473982
0.14800	56517777
0.14867	61685340
0.14933	66953957
0.15000	72302294
0.15067	77711668
0.15133	83165480
0.15200	88648296
0.15267	94145749
0.15333	99644242
0.15400	105131351
0.15467	110595505
0.15533	116025941
0.15600	121412501
0.15667	126746026
0.15733	132018306
0.15800	137221943
0.15867	142350115
0.15933	147396731
0.16000	152355862
0.16067	157221992
0.16133	161989788
0.16200	166654106
0.16267	171209846
0.16333	175652465
0.16400	179977873
0.16467	184182452
0.16533	188262922
0.16600	192215990
0.16667	196038546
0.16733	199726988
0.16800	203277838
0.16867	206687262
0.16933	209951356
0.17000	213066033
0.17067	216027277
0.17133	218830800
0.17200	221472652
0.17267	223948247
0.17333	226253670
0.17400	228385181
0.17467	230339840
0.17533	232114703
0.17600	233707697
0.17667	235117244
0.17733	236342821
0.17800	237384737
0.17867	238244003
0.17933	238921862
0.18000	239420313
0.18067	239741964
0.18133	239889875
0.18200	239867760
0.18267	239679611
0.18333	239329951
0.18400	238823376
0.18467	238164619
0.18533	237358257
0.18600	236409132
0.18667	235322150
0.18733	234102568
0.18800	232755620
0.18867	231286800
0.18933	229701546
0.19000	228005514
0.19067	226204282
0.19133	224303516
0.19200	222308749
0.19267	220225479
0.19333	218059141
0.19400	215815223
0.19467	213499167
0.19533	211116287
0.19600	208671703
0.19667	206170424
0.19733	203617436
0.19800	201017594
0.19867	198375689
0.19933	195696322
0.20000	192983981
0.20067	190242972
0.20133	187477500
0.20200	184691602
0.20267	181889213
0.20333	179074071
0.20400	176249817
0.20467	173419962
0.20533	170587942
0.20600	167757040
0.20667	164930383
0.20733	162110879
0.20800	159301235
0.20867	156503962
0.20933	153721426
0.21000	150955943
0.21067	148209860
0.21133	145485449
0.21200	142784645
0.21267	140108915
0.21333	137459272
0.21400	134836494
0.21467	132241191
0.21533	129673916
0.21600	127135186
0.21667	124625533
0.21733	122145467
0.21800	119695514
0.21867	117276160
0.21933	114887891
0.22000	112531152
0.22067	110206360
0.22133	107913884
0.22200	105654064
0.22267	103427190
0.22333	101233510
0.22400	99073231
0.22467	96946520
0.22533	94853503
0.22600	92794267
0.22667	90768854
0.22733	88777248
0.22800	86819396
0.22867	84895210
0.22933	83004575
0.23000	81147345
0.23067	79323348
0.23133	77532374
0.23200	75774194
0.23267	74048552
0.23333	72355180
0.23400	70693785
0.23467	69064061
0.23533	67465675
0.23600	65898281
0.23667	64361525
0.23733	62855047
0.23800	61378474
0.23867	59931421
0.23933	58513498
0.24000	57124311
0.24067	55763455
0.24133	54430521
0.24200	53125093
0.24267	51846759
0.24333	50595112
0.24400	49369741
0.24467	48170240
0.24533	46996192
0.24600	45847194
0.24667	44722841
0.24733	43622733
0.24800	42546466
0.24867	41493642
0.24933	40463863
0.25000	39456741
0.25067	38471886
0.25133	37508914
0.25200	36567445
0.25267	35647103
0.25333	34747514
0.25400	33868308
0.25467	33009119
0.25533	32169584
0.25600	31349347
0.25667	30548052
0.25733	29765349
0.25800	29000896
0.25867	28254351
0.25933	27525376
0.26000	26813635
0.26067	26118798
0.26133	25440540
0.26200	24778536
0.26267	24132470
0.26333	23502028
0.26400	22886902
0.26467	22286783
0.26533	21701368
0.26600	21130360
0.26667	20573466
0.26733	20030398
0.26800	19500872
0.26867	18984607
0.26933	18481330
0.27000	17990770
0.27067	17512661
0.27133	17046740
0.27200	16592751
0.27267	16150440
0.27333	15719556
0.27400	15299856
0.27467	14891100
0.27533	14493053
0.27600	14105486
0.27667	13728176
0.27733	13360904
0.27800	13003457
0.27867	12655628
0.27933	12317215
0.28000	11988023
0.28067	11667864
0.28133	11356560
0.28200	11053935
0.28267	10759828
0.28333	10474081
0.28400	10196551
0.28467	9927103
0.28533	9665616
0.28600	9411977
0.28667	9166085
0.28733	8927843
0.28800	8697157
0.28867	8473937
0.28933	8258088
0.29000	8049514
0.29067	7848111
0.29133	7653777
0.29200	7466403
0.29267	7285877
0.29333	7112077
0.29400	6944881
0.29467	6784161
0.29533	6629792
0.29600	6481638
0.29667	6339567
0.29733	6203436
0.29800	6073109
0.29867	5948442
0.29933	5829285
0.30000	5715481
0.30067	5606875
0.30133	5503312
0.30200	5404632
0.30267	5310676
0.30333	5221283
0.30400	5136290
0.30467	5055539
0.30533	4978866
0.30600	4906104
0.30667	4837080
0.30733	4771620
0.30800	4709547
0.30867	4650687
0.30933	4594873
0.31000	4541939
0.31067	4491723
0.31133	4444067
0.31200	4398816
0.31267	4355825
0.31333	4314958
0.31400	4276089
0.31467	4239103
0.31533	4203887
0.31600	4170333
0.31667	4138340
0.31733	4107813
0.31800	4078657
0.31867	4050782
0.31933	4024096
0.32000	3998512
0.32067	3973939
0.32133	3950285
0.32200	3927452
0.32267	3905343
0.32333	3883860
0.32400	3862913
0.32467	3842408
0.32533	3822251
0.32600	3802335
0.32667	3782551
0.32733	3762782
0.32800	3742913
0.32867	3722823
0.32933	3702394
0.33000	3681510
0.33067	3660059
0.33133	3637931
0.33200	3615018
0.33267	3591211
0.33333	3566407
0.33400	3540514
0.33467	3513453
0.33533	3485159
0.33600	3455584
0.33667	3424703
0.33733	3392507
0.33800	3359010
0.33867	3324241
0.33933	3288248
0.34000	3251091
0.34067	3212839
0.34133	3173569
0.34200	3133362
0.34267	3092302
0.34333	3050475
0.34400	3007965
0.34467	2964856
0.34533	2921232
0.34600	2877172
0.34667	2832755
0.34733	2788055
0.34800	2743144
0.34867	2698091
0.34933	2652960
0.35000	2607813
0.35067	2562706
0.35133	2517695
0.35200	2472828
0.35267	2428154
0.35333	2383716
0.35400	2339555
0.35467	2295707
0.35533	2252207
0.35600	2209087
0.35667	2166375
0.35733	2124098
0.35800	2082278
0.35867	2040939
0.35933	2000100
0.36000	1959777
0.36067	1919986
0.36133	1880741
0.36200	1842052
0.36267	1803932
0.36333	1766390
0.36400	1729435
0.36467	1693073
0.36533	1657310
0.36600	1622150
0.36667	1587596
0.36733	1553650
0.36800	1520313
0.36867	1487585
0.36933	1455464
0.37000	1423949
0.37067	1393037
0.37133	1362727
0.37200	1333013
0.37267	1303892
0.37333	1275359
0.37400	1247410
0.37467	1220038
0.37533	1193237
0.37600	1167002
0.37667	1141326
0.37733	1116202
0.37800	1091622
0.37867	1067580
0.37933	1044065
0.38000	1021071
0.38067	998589
0.38133	976612
0.38200	955134
0.38267	934148
0.38333	913647
0.38400	893627
0.38467	874079
0.38533	854998
0.38600	836376
0.38667	818208
0.38733	800488
0.38800	783210
0.38867	766369
0.38933	749961
0.39000	733984
0.39067	718435
0.39133	703312
0.39200	688613
0.39267	674334
0.39333	660469
0.39400	647010
0.39467	633948
0.39533	621272
0.39600	608973
0.39667	597043
0.39733	585469
0.39800	574243
0.39867	563353
0.39933	552788
0.40000	542540
0.40067	532596
0.40133	522948
0.40200	513585
0.40267	504498
0.40333	495677
0.40400	487115
0.40467	478803
0.40533	470731
0.40600	462893
0.40667	455279
0.40733	447883
0.40800	440698
0.40867	433715
0.40933	426930
0.41000	420334
0.41067	413922
0.41133	407688
0.41200	401626
0.41267	395730
0.41333	389995
0.41400	384416
0.41467	378987
0.41533	373703
0.41600	368560
0.41667	363552
0.41733	358676
0.41800	353927
0.41867	349301
0.41933	344793
0.42000	340398
0.42067	336115
0.42133	331937
0.42200	327863
0.42267	323888
0.42333	320009
0.42400	316223
0.42467	312526
0.42533	308916
0.42600	305390
0.42667	301945
0.42733	298579
0.42800	295287
0.42867	292069
0.42933	288922
0.43000	285843
0.43067	282829
0.43133	279880
0.43200	276992
0.43267	274164
0.43333	271394
0.43400	268680
0.43467	266020
0.43533	263412
0.43600	260855
0.43667	258346
0.43733	255886
0.43800	253472
0.43867	251102
0.43933	248776
0.44000	246491
0.44067	244247
0.44133	242043
0.44200	239877
0.44267	237749
0.44333	235657
0.44400	233599
0.44467	231575
0.44533	229584
0.44600	227625
0.44667	225697
0.44733	223798
0.44800	221929
0.44867	220087
0.44933	218273
0.45000	216485
0.45067	214722
0.45133	212985
0.45200	211271
0.45267	209581
0.45333	207913
0.45400	206268
0.45467	204643
0.45533	203040
0.45600	201457
0.45667	199894
0.45733	198350
0.45800	196825
0.45867	195318
0.45933	193830
0.46000	192360
0.46067	190908
0.46133	189472
0.46200	188054
0.46267	186653
0.46333	185269
0.46400	183901
0.46467	182549
0.46533	181214
0.46600	179895
0.46667	178592
0.46733	177304
0.46800	176033
0.46867	174776
0.46933	173535
0.47000	172308
0.47067	171096
0.47133	169899
0.47200	168716
0.47267	167546
0.47333	166390
0.47400	165248
0.47467	164119
0.47533	163003
0.47600	161899
0.47667	160808
0.47733	159728
0.47800	158661
0.47867	157605
0.47933	156561
0.48000	155527
0.48067	154504
0.48133	153492
0.48200	152491
0.48267	151499
0.48333	150518
0.48400	149546
0.48467	148584
0.48533	147631
0.48600	146687
0.48667	145753
0.48733	144826
0.48800	143909
0.48867	143000
0.48933	142100
0.49000	141208
0.49067	140324
0.49133	139448
0.49200	138580
0.49267	137720
0.49333	136868
0.49400	136023
0.49467	135185
0.49533	134355
0.49600	133532
0.49667	132716
0.49733	131907
0.49800	131105
0.49867	130310
0.49933	129522
0.50000	128740
0.50067	127965
0.50133	127196
0.50200	126434
0.50267	125678
0.50333	124929
0.50400	124185
0.50467	123448
0.50533	122717
0.50600	121992
0.50667	121273
0.50733	120560
0.50800	119853
0.50867	119152
0.50933	118456
0.51000	117767
0.51067	117083
0.51133	116405
0.51200	115732
0.51267	115065
0.51333	114404
0.51400	113748
0.51467	113097
0.51533	112451
0.51600	111811
0.51667	111175
0.51733	110544
0.51800	109918
0.51867	109297
0.51933	108681
0.52000	108069
0.52067	107462
0.52133	106860
0.52200	106263
0.52267	105669
0.52333	105081
0.52400	104496
0.52467	103916
0.52533	103341
0.52600	102769
0.52667	102203
0.52733	101640
0.52800	101082
0.52867	100528
0.52933	99978
0.53000	99432
0.53067	98890
0.53133	98353
0.53200	97820
0.53267	97290
0.53333	96765
0.53400	96244
0.53467	95727
0.53533	95214
0.53600	94705
0.53667	94200
0.53733	93698
0.53800	93200
0.53867	92707
0.53933	92216
0.54000	91730
0.54067	91248
0.54133	90769
0.54200	90294
0.54267	89822
0.54333	89354
0.54400	88890
0.54467	88430
0.54533	87973
0.54600	87520
0.54667	87070
0.54733	86623
0.54800	86180
0.54867	85741
0.54933	85305
0.55000	84872
0.55067	84443
0.55133	84017
0.55200	83594
0.55267	83174
0.55333	82758
0.55400	82345
0.55467	81936
0.55533	81529
0.55600	81126
0.55667	80726
0.55733	80329
0.55800	79935
0.55867	79544
0.55933	79156
0.56000	78772
0.56067	78390
0.56133	78012
0.56200	77637
0.56267	77265
0.56333	76896
0.56400	76530
0.56467	76167
0.56533	75807
0.56600	75451
0.56667	75097
0.56733	74747
0.56800	74400
0.56867	74056
0.56933	73715
0.57000	73377
0.57067	73042
0.57133	72710
0.57200	72382
0.57267	72056
0.57333	71734
0.57400	71414
0.57467	71097
0.57533	70784
0.57600	70473
0.57667	70165
0.57733	69860
0.57800	69557
0.57867	69257
0.57933	68960
0.58000	68665
0.58067	68373
0.58133	68083
0.58200	67796
0.58267	67511
0.58333	67228
0.58400	66948
0.58467	66669
0.58533	66393
0.58600	66119
0.58667	65847
0.58733	65577
0.58800	65309
0.58867	65042
0.58933	64778
0.59000	64515
0.59067	64254
0.59133	63994
0.59200	63737
0.59267	63481
0.59333	63226
0.59400	62974
0.59467	62723
0.59533	62473
0.59600	62225
0.59667	61979
0.59733	61733
0.59800	61490
0.59867	61248
0.59933	61007
0.60000	60768
0.60067	60530
0.60133	60294
0.60200	60059
0.60267	59825
0.60333	59593
0.60400	59362
0.60467	59132
0.60533	58904
0.60600	58677
0.60667	58451
0.60733	58227
0.60800	58004
0.60867	57782
0.60933	57561
0.61000	57342
0.61067	57124
0.61133	56907
0.61200	56691
0.61267	56477
0.61333	56263
0.61400	56051
0.61467	55840
0.61533	55630
0.61600	55421
0.61667	55214
0.61733	55007
0.61800	54801
0.61867	54597
0.61933	54394
0.62000	54192
0.62067	53991
0.62133	53792
0.62200	53594
0.62267	53397
0.62333	53201
0.62400	53007
0.62467	52814
0.62533	52623
0.62600	52433
0.62667	52244
0.62733	52057
0.62800	51871
0.62867	51687
0.62933	51504
0.63000	51322
0.63067	51142
0.63133	50963
0.63200	50786
0.63267	50610
0.63333	50436
0.63400	50263
0.63467	50092
0.63533	49921
0.63600	49752
0.63667	49585
0.63733	49418
0.63800	49253
0.63867	49089
0.63933	48927
0.64000	48765
0.64067	48605
0.64133	48446
0.64200	48288
0.64267	48131
0.64333	47976
0.64400	47821
0.64467	47668
0.64533	47516
0.64600	47365
0.64667	47215
0.64733	47067
0.64800	46920
0.64867	46775
0.64933	46631
0.65000	46488
0.65067	46348
0.65133	46209
0.65200	46071
0.65267	45936
0.65333	45802
0.65400	45670
0.65467	45540
0.65533	45411
0.65600	45284
0.65667	45160
0.65733	45036
0.65800	44914
0.65867	44794
0.65933	44675
0.66000	44558
0.66067	44441
0.66133	44326
0.66200	44212
0.66267	44098
0.66333	43986
0.66400	43874
0.66467	43763
0.66533	43652
0.66600	43541
0.66667	43431
0.66733	43321
0.66800	43211
0.66867	43101
0.66933	42991
0.67000	42881
0.67067	42772
0.67133	42662
0.67200	42552
0.67267	42442
0.67333	42333
0.67400	42223
0.67467	42114
0.67533	42004
0.67600	41895
0.67667	41785
0.67733	41676
0.67800	41566
0.67867	41457
0.67933	41349
0.68000	41240
0.68067	41132
0.68133	41023
0.68200	40916
0.68267	40808
0.68333	40701
0.68400	40595
0.68467	40489
0.68533	40383
0.68600	40278
0.68667	40174
0.68733	40070
0.68800	39967
0.68867	39865
0.68933	39764
0.69000	39664
0.69067	39565
0.69133	39467
0.69200	39371
0.69267	39276
0.69333	39184
0.69400	39093
0.69467	39005
0.69533	38919
0.69600	38836
0.69667	38756
0.69733	38680
0.69800	38607
0.69867	38538
0.69933	38474
0.70000	38414
0.70067	38359
0.70133	38308
0.70200	38263
0.70267	38223
0.70333	38187
0.70400	38156
0.70467	38130
0.70533	38107
0.70600	38089
0.70667	38073
0.70733	38061
0.70800	38051
0.70867	38042
0.70933	38034
0.71000	38027
0.71067	38020
0.71133	38011
0.71200	38001
0.71267	37989
0.71333	37974
0.71400	37957
0.71467	37936
0.71533	37912
0.71600	37884
0.71667	37851
0.71733	37815
0.71800	37775
0.71867	37731
0.71933	37683
0.72000	37631
0.72067	37576
0.72133	37516
0.72200	37454
0.72267	37388
0.72333	37318
0.72400	37246
0.72467	37171
0.72533	37094
0.72600	37014
0.72667	36933
0.72733	36849
0.72800	36763
0.72867	36676
0.72933	36587
0.73000	36497
0.73067	36406
0.73133	36314
0.73200	36220
0.73267	36126
0.73333	36031
0.73400	35935
0.73467	35839
0.73533	35742
0.73600	35645
0.73667	35547
0.73733	35449
0.73800	35351
0.73867	35253
0.73933	35155
0.74000	35057
0.74067	34958
0.74133	34860
0.74200	34762
0.74267	34664
0.74333	34566
0.74400	34469
0.74467	34371
0.74533	34274
0.74600	34177
0.74667	34081
0.74733	33985
0.74800	33889
0.74867	33794
0.74933	33699
0.75000	33605
0.75067	33511
0.75133	33418
0.75200	33325
0.75267	33233
0.75333	33141
0.75400	33050
0.75467	32959
0.75533	32869
0.75600	32780
0.75667	32692
0.75733	32604
0.75800	32517
0.75867	32430
0.75933	32344
0.76000	32259
0.76067	32175
0.76133	32091
0.76200	32008
0.76267	31926
0.76333	31844
0.76400	31763
0.76467	31683
0.76533	31604
0.76600	31525
0.76667	31447
0.76733	31370
0.76800	31294
0.76867	31218
0.76933	31143
0.77000	31069
0.77067	30996
0.77133	30923
0.77200	30851
0.77267	30779
0.77333	30709
0.77400	30639
0.77467	30570
0.77533	30501
0.77600	30433
0.77667	30366
0.77733	30299
0.77800	30233
0.77867	30168
0.77933	30103
0.78000	30039
0.78067	29975
0.78133	29912
0.78200	29849
0.78267	29787
0.78333	29726
0.78400	29665
0.78467	29605
0.78533	29545
0.78600	29486
0.78667	29427
0.78733	29368
0.78800	29311
0.78867	29253
0.78933	29197
0.79000	29141
0.79067	29085
0.79133	29030
0.79200	28975
0.79267	28921
0.79333	28867
0.79400	28814
0.79467	28761
0.79533	28709
0.79600	28657
0.79667	28606
0.79733	28555
0.79800	28505
0.79867	28455
0.79933	28405
0.80000	28356
0.80067	28308
0.80133	28259
0.80200	28211
0.80267	28163
0.80333	28116
0.80400	28069
0.80467	28022
0.80533	27975
0.80600	27929
0.80667	27883
0.80733	27837
0.80800	27791
0.80867	27745
0.80933	27700
0.81000	27654
0.81067	27609
0.81133	27565
0.81200	27520
0.81267	27475
0.81333	27431
0.81400	27387
0.81467	27343
0.81533	27299
0.81600	27255
0.81667	27212
0.81733	27168
0.81800	27125
0.81867	27082
0.81933	27039
0.82000	26996
0.82067	26953
0.82133	26911
0.82200	26868
0.82267	26826
0.82333	26784
0.82400	26742
0.82467	26700
0.82533	26658
0.82600	26617
0.82667	26575
0.82733	26534
0.82800	26493
0.82867	26452
0.82933	26411
0.83000	26371
0.83067	26331
0.83133	26291
0.83200	26251
0.83267	26211
0.83333	26171
0.83400	26132
0.83467	26093
0.83533	26054
0.83600	26015
0.83667	25976
0.83733	25938
0.83800	25899
0.83867	25861
0.83933	25823
0.84000	25785
0.84067	25747
0.84133	25710
0.84200	25672
0.84267	25635
0.84333	25598
0.84400	25561
0.84467	25525
0.84533	25488
0.84600	25452
0.84667	25416
0.84733	25380
0.84800	25345
0.84867	25309
0.84933	25274
0.85000	25238
0.85067	25203
0.85133	25168
0.85200	25134
0.85267	25099
0.85333	25065
0.85400	25030
0.85467	24996
0.85533	24962
0.85600	24928
0.85667	24895
0.85733	24861
0.85800	24828
0.85867	24795
0.85933	24762
0.86000	24729
0.86067	24696
0.86133	24663
0.86200	24630
0.86267	24598
0.86333	24565
0.86400	24533
0.86467	24501
0.86533	24469
0.86600	24437
0.86667	24405
0.86733	24374
0.86800	24342
0.86867	24310
0.86933	24279
0.87000	24248
0.87067	24216
0.87133	24185
0.87200	24154
0.87267	24123
0.87333	24092
0.87400	24061
0.87467	24030
0.87533	23999
0.87600	23969
0.87667	23938
0.87733	23908
0.87800	23877
0.87867	23847
0.87933	23817
0.88000	23786
0.88067	23756
0.88133	23726
0.88200	23697
0.88267	23667
0.88333	23637
0.88400	23608
0.88467	23579
0.88533	23549
0.88600	23520
0.88667	23491
0.88733	23462
0.88800	23433
0.88867	23404
0.88933	23375
0.89000	23347
0.89067	23318
0.89133	23290
0.89200	23261
0.89267	23233
0.89333	23205
0.89400	23177
0.89467	23149
0.89533	23121
0.89600	23093
0.89667	23066
0.89733	23038
0.89800	23010
0.89867	22983
0.89933	22956
0.90000	22928
0.90067	22901
0.90133	22874
0.90200	22847
0.90267	22820
0.90333	22793
0.90400	22766
0.90467	22740
0.90533	22713
0.90600	22686
0.90667	22660
0.90733	22633
0.90800	22607
0.90867	22581
0.90933	22554
0.91000	22528
0.91067	22502
0.91133	22476
0.91200	22450
0.91267	22424
0.91333	22399
0.91400	22373
0.91467	22348
0.91533	22322
0.91600	22297
0.91667	22272
0.91733	22247
0.91800	22222
0.91867	22198
0.91933	22173
0.92000	22149
0.92067	22125
0.92133	22101
0.92200	22077
0.92267	22053
0.92333	22030
0.92400	22006
0.92467	21983
0.92533	21960
0.92600	21938
0.92667	21915
0.92733	21893
0.92800	21870
0.92867	21848
0.92933	21827
0.93000	21805
0.93067	21784
0.93133	21762
0.93200	21741
0.93267	21720
0.93333	21700
0.93400	21679
0.93467	21659
0.93533	21639
0.93600	21619
0.93667	21600
0.93733	21580
0.93800	21561
0.93867	21541
0.93933	21522
0.94000	21503
0.94067	21484
0.94133	21465
0.94200	21446
0.94267	21427
0.94333	21408
0.94400	21390
0.94467	21371
0.94533	21352
0.94600	21333
0.94667	21314
0.94733	21295
0.94800	21276
0.94867	21257
0.94933	21238
0.95000	21219
0.95067	21200
0.95133	21181
0.95200	21162
0.95267	21143
0.95333	21124
0.95400	21105
0.95467	21086
0.95533	21067
0.95600	21048
0.95667	21029
0.95733	21010
0.95800	20992
0.95867	20973
0.95933	20955
0.96000	20937
0.96067	20919
0.96133	20902
0.96200	20884
0.96267	20867
0.96333	20849
0.96400	20832
0.96467	20816
0.96533	20799
0.96600	20782
0.96667	20766
0.96733	20750
0.96800	20733
0.96867	20717
0.96933	20701
0.97000	20685
0.97067	20670
0.97133	20654
0.97200	20638
0.97267	20621
0.97333	20605
0.97400	20589
0.97467	20573
0.97533	20556
0.97600	20539
0.97667	20522
0.97733	20505
0.97800	20488
0.97867	20470
0.97933	20452
0.98000	20434
0.98067	20416
0.98133	20397
0.98200	20379
0.98267	20360
0.98333	20341
0.98400	20321
0.98467	20302
0.98533	20282
0.98600	20262
0.98667	20242
0.98733	20222
0.98800	20202
0.98867	20182
0.98933	20161
0.99000	20141
0.99067	20120
0.99133	20099
0.99200	20078
0.99267	20057
0.99333	20036
0.99400	20015
0.99467	19994
0.99533	19974
0.99600	19953
0.99667	19932
0.99733	19911
0.99800	19890
0.99867	19869
0.99933	19848
1.00000	19828
1.00067	19807
1.00133	19786
1.00200	19766
1.00267	19745
1.00333	19725
1.00400	19704
1.00467	19684
1.00533	19664
1.00600	19644
1.00667	19624
1.00733	19604
1.00800	19584
1.00867	19564
1.00933	19544
1.01000	19525
1.01067	19505
1.01133	19486
1.01200	19466
1.01267	19447
1.01333	19428
1.01400	19409
1.01467	19391
1.01533	19372
1.01600	19354
1.01667	19336
1.01733	19318
1.01800	19300
1.01867	19283
1.01933	19265
1.02000	19248
1.02067	19231
1.02133	19215
1.02200	19198
1.02267	19182
1.02333	19166
1.02400	19150
1.02467	19135
1.02533	19119
1.02600	19104
1.02667	19089
1.02733	19075
1.02800	19060
1.02867	19046
1.02933	19031
1.03000	19017
1.03067	19003
1.03133	18989
1.03200	18975
1.03267	18962
1.03333	18948
1.03400	18935
1.03467	18921
1.03533	18908
1.03600	18894
1.03667	18881
1.03733	18867
1.03800	18854
1.03867	18840
1.03933	18827
1.04000	18813
1.04067	18799
1.04133	18786
1.04200	18772
1.04267	18758
1.04333	18744
1.04400	18730
1.04467	18716
1.04533	18702
1.04600	18688
1.04667	18673
1.04733	18659
1.04800	18644
1.04867	18629
1.04933	18615
1.05000	18600
1.05067	18585
1.05133	18570
1.05200	18555
1.05267	18540
1.05333	18525
1.05400	18510
1.05467	18494
1.05533	18479
1.05600	18464
1.05667	18449
1.05733	18433
1.05800	18418
1.05867	18403
1.05933	18388
1.06000	18372
1.06067	18357
1.06133	18342
1.06200	18326
1.06267	18311
1.06333	18296
1.06400	18281
1.06467	18266
1.06533	18250
1.06600	18235
1.06667	18220
1.06733	18205
1.06800	18190
1.06867	18175
1.06933	18160
1.07000	18145
1.07067	18130
1.07133	18115
1.07200	18100
1.07267	18085
1.07333	18071
1.07400	18056
1.07467	18041
1.07533	18027
1.07600	18012
1.07667	17998
1.07733	17984
1.07800	17969
1.07867	17955
1.07933	17941
1.08000	17927
1.08067	17913
1.08133	17899
1.08200	17885
1.08267	17872
1.08333	17858
1.08400	17844
1.08467	17831
1.08533	17817
1.08600	17804
1.08667	17790
1.08733	17777
1.08800	17764
1.08867	17751
1.08933	17738
1.09000	17725
1.09067	17712
1.09133	17699
1.09200	17686
1.09267	17673
1.09333	17660
1.09400	17648
1.09467	17635
1.09533	17622
1.09600	17610
1.09667	17597
1.09733	17585
1.09800	17572
1.09867	17560
1.09933	17548
1.10000	17535
1.10067	17523
1.10133	17511
1.10200	17499
1.10267	17487
1.10333	17475
1.10400	17463
1.10467	17451
1.10533	17440
1.10600	17428
1.10667	17416
1.10733	17405
1.10800	17393
1.10867	17382
1.10933	17370
1.11000	17359
1.11067	17348
1.11133	17336
1.11200	17326
1.11267	17315
1.11333	17304
1.11400	17293
1.11467	17283
1.11533	17272
1.11600	17262
1.11667	17251
1.11733	17241
1.11800	17231
1.11867	17221
1.11933	17211
1.12000	17201
1.12067	17191
1.12133	17181
1.12200	17172
1.12267	17162
1.12333	17153
1.12400	17143
1.12467	17134
1.12533	17124
1.12600	17115
1.12667	17105
1.12733	17096
1.12800	17087
1.12867	17078
1.12933	17069
1.13000	17060
1.13067	17051
1.13133	17042
1.13200	17033
1.13267	17024
1.13333	17015
1.13400	17006
1.13467	16998
1.13533	16989
1.13600	16981
1.13667	16972
1.13733	16964
1.13800	16956
1.13867	16947
1.13933	16939
1.14000	16931
1.14067	16922
1.14133	16914
1.14200	16906
1.14267	16897
1.14333	16889
1.14400	16880
1.14467	16872
1.14533	16863
1.14600	16854
1.14667	16845
1.14733	16837
1.14800	16828
1.14867	16819
1.14933	16810
1.15000	16801
1.15067	16792
1.15133	16783
1.15200	16774
1.15267	16765
1.15333	16756
1.15400	16746
1.15467	16737
1.15533	16728
1.15600	16719
1.15667	16709
1.15733	16700
1.15800	16690
1.15867	16681
1.15933	16672
1.16000	16662
1.16067	16653
1.16133	16643
1.16200	16634
1.16267	16624
1.16333	16615
1.16400	16605
1.16467	16596
1.16533	16587
1.16600	16577
1.16667	16568
1.16733	16559
1.16800	16549
1.16867	16540
1.16933	16531
1.17000	16522
1.17067	16513
1.17133	16504
1.17200	16494
1.17267	16485
1.17333	16476
1.17400	16467
1.17467	16458
1.17533	16449
1.17600	16441
1.17667	16432
1.17733	16423
1.17800	16414
1.17867	16405
1.17933	16397
1.18000	16388
1.18067	16379
1.18133	16371
1.18200	16362
1.18267	16354
1.18333	16345
1.18400	16337
1.18467	16329
1.18533	16321
1.18600	16312
1.18667	16305
1.18733	16297
1.18800	16289
1.18867	16281
1.18933	16274
1.19000	16267
1.19067	16260
1.19133	16253
1.19200	16246
1.19267	16240
1.19333	16234
1.19400	16228
1.19467	16223
1.19533	16218
1.19600	16213
1.19667	16208
1.19733	16204
1.19800	16199
1.19867	16196
1.19933	16192
1.20000	16188
1.20067	16185
1.20133	16183
1.20200	16180
1.20267	16178
1.20333	16176
1.20400	16175
1.20467	16174
1.20533	16173
1.20600	16172
1.20667	16172
1.20733	16172
1.20800	16172
1.20867	16173
1.20933	16173
1.21000	16174
1.21067	16175
1.21133	16177
1.21200	16179
1.21267	16181
1.21333	16183
1.21400	16186
1.21467	16188
1.21533	16191
1.21600	16195
1.21667	16198
1.21733	16201
1.21800	16205
1.21867	16209
1.21933	16213
1.22000	16217
1.22067	16221
1.22133	16226
1.22200	16230
1.22267	16234
1.22333	16239
1.22400	16244
1.22467	16249
1.22533	16254
1.22600	16259
1.22667	16264
1.22733	16269
1.22800	16274
1.22867	16280
1.22933	16285
1.23000	16291
1.23067	16296
1.23133	16302
1.23200	16308
1.23267	16314
1.23333	16320
1.23400	16326
1.23467	16332
1.23533	16338
1.23600	16345
1.23667	16351
1.23733	16358
1.23800	16365
1.23867	16373
1.23933	16380
1.24000	16389
1.24067	16397
1.24133	16406
1.24200	16416
1.24267	16426
1.24333	16437
1.24400	16449
1.24467	16462
1.24533	16476
1.24600	16491
1.24667	16507
1.24733	16525
1.24800	16544
1.24867	16564
1.24933	16586
1.25000	16610
1.25067	16635
1.25133	16662
1.25200	16690
1.25267	16720
1.25333	16751
1.25400	16784
1.25467	16818
1.25533	16854
1.25600	16891
1.25667	16929
1.25733	16968
1.25800	17008
1.25867	17048
1.25933	17089
1.26000	17131
1.26067	17172
1.26133	17214
1.26200	17256
1.26267	17297
1.26333	17338
1.26400	17379
1.26467	17418
1.26533	17457
1.26600	17494
1.26667	17530
1.26733	17565
1.26800	17598
1.26867	17630
1.26933	17661
1.27000	17689
1.27067	17716
1.27133	17741
1.27200	17764
1.27267	17786
1.27333	17806
1.27400	17824
1.27467	17840
1.27533	17854
1.27600	17867
1.27667	17877
1.27733	17886
1.27800	17894
1.27867	17899
1.27933	17903
1.28000	17906
1.28067	17906
1.28133	17905
1.28200	17903
1.28267	17899
1.28333	17894
1.28400	17887
1.28467	17880
1.28533	17870
1.28600	17860
1.28667	17849
1.28733	17836
1.28800	17822
1.28867	17807
1.28933	17792
1.29000	17775
1.29067	17757
1.29133	17739
1.29200	17720
1.29267	17700
1.29333	17679
1.29400	17658
1.29467	17636
1.29533	17614
1.29600	17591
1.29667	17567
1.29733	17544
1.29800	17519
1.29867	17495
1.29933	17470
1.30000	17444
1.30067	17419
1.30133	17393
1.30200	17367
1.30267	17340
1.30333	17314
1.30400	17287
1.30467	17260
1.30533	17232
1.30600	17205
1.30667	17177
1.30733	17150
1.30800	17122
1.30867	17094
1.30933	17066
1.31000	17039
1.31067	17011
1.31133	16983
1.31200	16955
1.31267	16927
1.31333	16899
1.31400	16871
1.31467	16843
1.31533	16816
1.31600	16788
1.31667	16761
1.31733	16733
1.31800	16706
1.31867	16678
1.31933	16651
1.32000	16624
1.32067	16597
1.32133	16570
1.32200	16543
1.32267	16516
1.32333	16490
1.32400	16464
1.32467	16437
1.32533	16411
1.32600	16385
1.32667	16359
1.32733	16334
1.32800	16308
1.32867	16283
1.32933	16258
1.33000	16234
1.33067	16209
1.33133	16185
1.33200	16160
1.33267	16136
1.33333	16113
1.33400	16089
1.33467	16066
1.33533	16043
1.33600	16020
1.33667	15998
1.33733	15975
1.33800	15953
1.33867	15931
1.33933	15910
1.34000	15888
1.34067	15867
1.34133	15846
1.34200	15826
1.34267	15805
1.34333	15785
1.34400	15765
1.34467	15745
1.34533	15726
1.34600	15706
1.34667	15687
1.34733	15668
1.34800	15649
1.34867	15631
1.34933	15612
1.35000	15594
1.35067	15576
1.35133	15558
1.35200	15540
1.35267	15523
1.35333	15506
1.35400	15489
1.35467	15472
1.35533	15455
1.35600	15438
1.35667	15422
1.35733	15406
1.35800	15390
1.35867	15374
1.35933	15358
1.36000	15343
1.36067	15327
1.36133	15312
1.36200	15297
1.36267	15283
1.36333	15268
1.36400	15253
1.36467	15239
1.36533	15225
1.36600	15211
1.36667	15197
1.36733	15183
1.36800	15170
1.36867	15156
1.36933	15143
1.37000	15130
1.37067	15117
1.37133	15104
1.37200	15091
1.37267	15078
1.37333	15066
1.37400	15053
1.37467	15041
1.37533	15029
1.37600	15017
1.37667	15005
1.37733	14993
1.37800	14981
1.37867	14970
1.37933	14958
1.38000	14947
1.38067	14936
1.38133	14925
1.38200	14914
1.38267	14903
1.38333	14892
1.38400	14882
1.38467	14871
1.38533	14861
1.38600	14851
1.38667	14841
1.38733	14831
1.38800	14821
1.38867	14811
1.38933	14801
1.39000	14792
1.39067	14782
1.39133	14773
1.39200	14764
1.39267	14755
1.39333	14746
1.39400	14737
1.39467	14728
1.39533	14720
1.39600	14711
1.39667	14702
1.39733	14694
1.39800	14686
1.39867	14677
1.39933	14669
1.40000	14661
1.40067	14653
1.40133	14645
1.40200	14637
1.40267	14629
1.40333	14621
1.40400	14612
1.40467	14604
1.40533	14596
1.40600	14588
1.40667	14580
1.40733	14572
1.40800	14564
1.40867	14556
1.40933	14548
1.41000	14540
1.41067	14532
1.41133	14524
1.41200	14516
1.41267	14508
1.41333	14500
1.41400	14492
1.41467	14483
1.41533	14475
1.41600	14467
1.41667	14459
1.41733	14451
1.41800	14443
1.41867	14435
1.41933	14427
1.42000	14419
1.42067	14411
1.42133	14402
1.42200	14394
1.42267	14386
1.42333	14378
1.42400	14371
1.42467	14363
1.42533	14355
1.42600	14347
1.42667	14339
1.42733	14332
1.42800	14324
1.42867	14316
1.42933	14309
1.43000	14301
1.43067	14293
1.43133	14286
1.43200	14278
1.43267	14271
1.43333	14263
1.43400	14256
1.43467	14249
1.43533	14241
1.43600	14234
1.43667	14227
1.43733	14220
1.43800	14213
1.43867	14207
1.43933	14200
1.44000	14193
1.44067	14187
1.44133	14180
1.44200	14174
1.44267	14168
1.44333	14161
1.44400	14155
1.44467	14149
1.44533	14143
1.44600	14138
1.44667	14132
1.44733	14126
1.44800	14121
1.44867	14115
1.44933	14110
1.45000	14105
1.45067	14099
1.45133	14094
1.45200	14089
1.45267	14084
1.45333	14079
1.45400	14073
1.45467	14068
1.45533	14063
1.45600	14058
1.45667	14053
1.45733	14048
1.45800	14043
1.45867	14038
1.45933	14033
1.46000	14028
1.46067	14024
1.46133	14019
1.46200	14014
1.46267	14009
1.46333	14004
1.46400	13999
1.46467	13994
1.46533	13989
1.46600	13984
1.46667	13980
1.46733	13975
1.46800	13970
1.46867	13965
1.46933	13959
1.47000	13954
1.47067	13949
1.47133	13944
1.47200	13939
1.47267	13933
1.47333	13928
1.47400	13923
1.47467	13918
1.47533	13912
1.47600	13907
1.47667	13902
1.47733	13896
1.47800	13891
1.47867	13885
1.47933	13880
1.48000	13874
1.48067	13869
1.48133	13863
1.48200	13857
1.48267	13852
1.48333	13846
1.48400	13841
1.48467	13835
1.48533	13829
1.48600	13824
1.48667	13818
1.48733	13812
1.48800	13806
1.48867	13800
1.48933	13795
1.49000	13789
1.49067	13783
1.49133	13777
1.49200	13771
1.49267	13765
1.49333	13759
1.49400	13753
1.49467	13747
1.49533	13742
1.49600	13736
1.49667	13730
1.49733	13724
1.49800	13718
1.49867	13712
1.49933	13707
1.50000	13701
1.50067	13695
1.50133	13689
1.50200	13684
1.50267	13678
1.50333	13672
1.50400	13667
1.50467	13661
1.50533	13655
1.50600	13650
1.50667	13644
1.50733	13639
1.50800	13633
1.50867	13628
1.50933	13622
1.51000	13617
1.51067	13611
1.51133	13606
1.51200	13601
1.51267	13595
1.51333	13590
1.51400	13584
1.51467	13579
1.51533	13574
1.51600	13568
1.51667	13563
1.51733	13558
1.51800	13552
1.51867	13547
1.51933	13542
1.52000	13536
1.52067	13531
1.52133	13526
1.52200	13521
1.52267	13516
1.52333	13511
1.52400	13505
1.52467	13500
1.52533	13495
1.52600	13490
1.52667	13485
1.52733	13480
1.52800	13475
1.52867	13470
1.52933	13465
1.53000	13460
1.53067	13455
1.53133	13450
1.53200	13445
1.53267	13440
1.53333	13435
1.53400	13430
1.53467	13425
1.53533	13420
1.53600	13415
1.53667	13410
1.53733	13405
1.53800	13400
1.53867	13395
1.53933	13390
1.54000	13385
1.54067	13380
1.54133	13375
1.54200	13370
1.54267	13365
1.54333	13360
1.54400	13356
1.54467	13351
1.54533	13346
1.54600	13342
1.54667	13337
1.54733	13332
1.54800	13328
1.54867	13323
1.54933	13318
1.55000	13314
1.55067	13309
1.55133	13305
1.55200	13300
1.55267	13295
1.55333	13291
1.55400	13286
1.55467	13282
1.55533	13277
1.55600	13272
1.55667	13268
1.55733	13263
1.55800	13259
1.55867	13254
1.55933	13249
1.56000	13245
1.56067	13240
1.56133	13235
1.56200	13231
1.56267	13226
1.56333	13221
1.56400	13217
1.56467	13212
1.56533	13207
1.56600	13203
1.56667	13198
1.56733	13194
1.56800	13189
1.56867	13185
1.56933	13180
1.57000	13176
1.57067	13171
1.57133	13167
1.57200	13162
1.57267	13158
1.57333	13153
1.57400	13149
1.57467	13144
1.57533	13140
1.57600	13135
1.57667	13131
1.57733	13126
1.57800	13122
1.57867	13117
1.57933	13113
1.58000	13109
1.58067	13104
1.58133	13100
1.58200	13096
1.58267	13091
1.58333	13087
1.58400	13083
1.58467	13079
1.58533	13075
1.58600	13070
1.58667	13066
1.58733	13062
1.58800	13058
1.58867	13054
1.58933	13050
1.59000	13046
1.59067	13043
1.59133	13039
1.59200	13035
1.59267	13031
1.59333	13027
1.59400	13023
1.59467	13020
1.59533	13016
1.59600	13012
1.59667	13008
1.59733	13004
1.59800	13001
1.59867	12997
1.59933	12993
1.60000	12990
1.60067	12986
1.60133	12982
1.60200	12979
1.60267	12975
1.60333	12972
1.60400	12968
1.60467	12964
1.60533	12961
1.60600	12957
1.60667	12954
1.60733	12950
1.60800	12946
1.60867	12943
1.60933	12939
1.61000	12935
1.61067	12932
1.61133	12928
1.61200	12924
1.61267	12921
1.61333	12917
1.61400	12914
1.61467	12910
1.61533	12906
1.61600	12903
1.61667	12899
1.61733	12895
1.61800	12892
1.61867	12888
1.61933	12885
1.62000	12881
1.62067	12878
1.62133	12875
1.62200	12872
1.62267	12868
1.62333	12865
1.62400	12862
1.62467	12859
1.62533	12855
1.62600	12852
1.62667	12849
1.62733	12846
1.62800	12843
1.62867	12840
1.62933	12837
1.63000	12834
1.63067	12831
1.63133	12828
1.63200	12825
1.63267	12823
1.63333	12820
1.63400	12817
1.63467	12814
1.63533	12812
1.63600	12809
1.63667	12806
1.63733	12804
1.63800	12801
1.63867	12798
1.63933	12796
1.64000	12793
1.64067	12790
1.64133	12787
1.64200	12785
1.64267	12782
1.64333	12779
1.64400	12777
1.64467	12774
1.64533	12771
1.64600	12769
1.64667	12766
1.64733	12764
1.64800	12761
1.64867	12758
1.64933	12756
1.65000	12753
1.65067	12751
1.65133	12748
1.65200	12746
1.65267	12743
1.65333	12741
1.65400	12739
1.65467	12737
1.65533	12734
1.65600	12732
1.65667	12730
1.65733	12728
1.65800	12725
1.65867	12723
1.65933	12721
1.66000	12719
1.66067	12716
1.66133	12714
1.66200	12712
1.66267	12709
1.66333	12707
1.66400	12705
1.66467	12702
1.66533	12700
1.66600	12698
1.66667	12695
1.66733	12693
1.66800	12690
1.66867	12688
1.66933	12685
1.67000	12682
1.67067	12680
1.67133	12677
1.67200	12675
1.67267	12672
1.67333	12669
1.67400	12666
1.67467	12664
1.67533	12661
1.67600	12658
1.67667	12655
1.67733	12652
1.67800	12649
1.67867	12646
1.67933	12643
1.68000	12640
1.68067	12636
1.68133	12633
1.68200	12630
1.68267	12627
1.68333	12623
1.68400	12620
1.68467	12617
1.68533	12613
1.68600	12610
1.68667	12606
1.68733	12602
1.68800	12599
1.68867	12595
1.68933	12591
1.69000	12587
1.69067	12584
1.69133	12580
1.69200	12576
1.69267	12572
1.69333	12568
1.69400	12565
1.69467	12561
1.69533	12557
1.69600	12553
1.69667	12549
1.69733	12545
1.69800	12542
1.69867	12538
1.69933	12534
1.70000	12530
1.70067	12526
1.70133	12523
1.70200	12519
1.70267	12515
1.70333	12511
1.70400	12507
1.70467	12503
1.70533	12499
1.70600	12496
1.70667	12492
1.70733	12488
1.70800	12484
1.70867	12480
1.70933	12477
1.71000	12473
1.71067	12469
1.71133	12466
1.71200	12462
1.71267	12459
1.71333	12456
1.71400	12453
1.71467	12450
1.71533	12447
1.71600	12445
1.71667	12444
1.71733	12443
1.71800	12442
1.71867	12443
1.71933	12444
1.72000	12447
1.72067	12452
1.72133	12458
1.72200	12468
1.72267	12480
1.72333	12496
1.72400	12517
1.72467	12543
1.72533	12577
1.72600	12618
1.72667	12669
1.72733	12731
1.72800	12806
1.72867	12898
1.72933	13008
1.73000	13140
1.73067	13298
1.73133	13485
1.73200	13707
1.73267	13969
1.73333	14276
1.73400	14635
1.73467	15052
1.73533	15535
1.73600	16093
1.73667	16734
1.73733	17469
1.73800	18309
1.73867	19266
1.73933	20355
1.74000	21588
1.74067	22983
1.74133	24554
1.74200	26319
1.74267	28297
1.74333	30504
1.74400	32960
1.74467	35683
1.74533	38693
1.74600	42010
1.74667	45652
1.74733	49639
1.74800	53991
1.74867	58723
1.74933	63856
1.75000	69408
1.75067	75402
1.75133	81858
1.75200	88796
1.75267	96236
1.75333	104200
1.75400	112708
1.75467	121776
1.75533	131422
1.75600	141663
1.75667	152516
1.75733	163999
1.75800	176131
1.75867	188924
1.75933	202391
1.76000	216540
1.76067	231379
1.76133	246918
1.76200	263163
1.76267	280122
1.76333	297796
1.76400	316182
1.76467	335274
1.76533	355065
1.76600	375542
1.76667	396685
1.76733	418468
1.76800	440854
1.76867	463799
1.76933	487257
1.77000	511184
1.77067	535530
1.77133	560234
1.77200	585224
1.77267	610425
1.77333	635748
1.77400	661101
1.77467	686380
1.77533	711479
1.77600	736288
1.77667	760691
1.77733	784569
1.77800	807799
1.77867	830258
1.77933	851827
1.78000	872392
1.78067	891850
1.78133	910111
1.78200	927096
1.78267	942736
1.78333	956976
1.78400	969777
1.78467	981112
1.78533	990974
1.78600	999365
1.78667	1006302
1.78733	1011807
1.78800	1015917
1.78867	1018672
1.78933	1020118
1.79000	1020308
1.79067	1019299
1.79133	1017148
1.79200	1013917
1.79267	1009668
1.79333	1004463
1.79400	998364
1.79467	991432
1.79533	983728
1.79600	975308
1.79667	966230
1.79733	956548
1.79800	946313
1.79867	935576
1.79933	924384
1.80000	912782
1.80067	900813
1.80133	888518
1.80200	875937
1.80267	863104
1.80333	850054
1.80400	836821
1.80467	823433
1.80533	809920
1.80600	796308
1.80667	782622
1.80733	768886
1.80800	755121
1.80867	741349
1.80933	727586
1.81000	713852
1.81067	700163
1.81133	686533
1.81200	672977
1.81267	659507
1.81333	646136
1.81400	632874
1.81467	619731
1.81533	606717
1.81600	593839
1.81667	581104
1.81733	568521
1.81800	556094
1.81867	543829
1.81933	531732
1.82000	519806
1.82067	508055
1.82133	496483
1.82200	485092
1.82267	473884
1.82333	462862
1.82400	452027
1.82467	441380
1.82533	430922
1.82600	420654
1.82667	410576
1.82733	400688
1.82800	390989
1.82867	381480
1.82933	372158
1.83000	363024
1.83067	354076
1.83133	345313
1.83200	336733
1.83267	328335
1.83333	320118
1.83400	312078
1.83467	304215
1.83533	296526
1.83600	289009
1.83667	281662
1.83733	274482
1.83800	267468
1.83867	260617
1.83933	253926
1.84000	247393
1.84067	241015
1.84133	234791
1.84200	228717
1.84267	222790
1.84333	217010
1.84400	211371
1.84467	205873
1.84533	200512
1.84600	195287
1.84667	190193
1.84733	185228
1.84800	180391
1.84867	175678
1.84933	171087
1.85000	166615
1.85067	162259
1.85133	158018
1.85200	153889
1.85267	149870
1.85333	145957
1.85400	142149
1.85467	138443
1.85533	134837
1.85600	131328
1.85667	127915
1.85733	124595
1.85800	121366
1.85867	118225
1.85933	115171
1.86000	112201
1.86067	109314
1.86133	106506
1.86200	103777
1.86267	101124
1.86333	98545
1.86400	96039
1.86467	93603
1.86533	91235
1.86600	88935
1.86667	86699
1.86733	84527
1.86800	82416
1.86867	80366
1.86933	78374
1.87000	76439
1.87067	74559
1.87133	72733
1.87200	70960
1.87267	69237
1.87333	67564
1.87400	65939
1.87467	64360
1.87533	62828
1.87600	61339
1.87667	59894
1.87733	58491
1.87800	57128
1.87867	55805
1.87933	54520
1.88000	53273
1.88067	52062
1.88133	50887
1.88200	49746
1.88267	48639
1.88333	47564
1.88400	46522
1.88467	45510
1.88533	44528
1.88600	43575
1.88667	42650
1.88733	41753
1.88800	40883
1.88867	40038
1.88933	39219
1.89000	38425
1.89067	37654
1.89133	36907
1.89200	36182
1.89267	35479
1.89333	34797
1.89400	34137
1.89467	33496
1.89533	32874
1.89600	32272
1.89667	31687
1.89733	31121
1.89800	30572
1.89867	30039
1.89933	29523
1.90000	29023
1.90067	28538
1.90133	28067
1.90200	27611
1.90267	27169
1.90333	26741
1.90400	26325
1.90467	25923
1.90533	25533
1.90600	25154
1.90667	24788
1.90733	24432
1.90800	24088
1.90867	23754
1.90933	23430
1.91000	23117
1.91067	22813
1.91133	22518
1.91200	22232
1.91267	21955
1.91333	21687
1.91400	21427
1.91467	21174
1.91533	20930
1.91600	20693
1.91667	20463
1.91733	20240
1.91800	20024
1.91867	19814
1.91933	19611
1.92000	19413
1.92067	19222
1.92133	19036
1.92200	18856
1.92267	18682
1.92333	18512
1.92400	18348
1.92467	18188
1.92533	18033
1.92600	17883
1.92667	17737
1.92733	17595
1.92800	17457
1.92867	17323
1.92933	17193
1.93000	17067
1.93067	16944
1.93133	16825
1.93200	16708
1.93267	16596
1.93333	16486
1.93400	16379
1.93467	16275
1.93533	16175
1.93600	16076
1.93667	15981
1.93733	15888
1.93800	15798
1.93867	15710
1.93933	15625
1.94000	15542
1.94067	15461
1.94133	15382
1.94200	15306
1.94267	15231
1.94333	15159
1.94400	15088
1.94467	15019
1.94533	14952
1.94600	14887
1.94667	14823
1.94733	14761
1.94800	14701
1.94867	14643
1.94933	14585
1.95000	14530
1.95067	14476
1.95133	14423
1.95200	14371
1.95267	14321
1.95333	14272
1.95400	14224
1.95467	14178
1.95533	14132
1.95600	14088
1.95667	14044
1.95733	14002
1.95800	13960
1.95867	13920
1.95933	13880
1.96000	13842
1.96067	13804
1.96133	13767
1.96200	13731
1.96267	13696
1.96333	13661
1.96400	13627
1.96467	13594
1.96533	13561
1.96600	13530
1.96667	13499
1.96733	13468
1.96800	13438
1.96867	13409
1.96933	13380
1.97000	13352
1.97067	13325
1.97133	13298
1.97200	13271
1.97267	13246
1.97333	13220
1.97400	13196
1.97467	13171
1.97533	13147
1.97600	13124
1.97667	13101
1.97733	13078
1.97800	13056
1.97867	13035
1.97933	13013
1.98000	12993
1.98067	12972
1.98133	12952
1.98200	12932
1.98267	12913
1.98333	12894
1.98400	12875
1.98467	12857
1.98533	12838
1.98600	12821
1.98667	12803
1.98733	12786
1.98800	12768
1.98867	12752
1.98933	12735
1.99000	12719
1.99067	12703
1.99133	12687
1.99200	12671
1.99267	12656
1.99333	12641
1.99400	12626
1.99467	12612
1.99533	12597
1.99600	12583
1.99667	12569
1.99733	12556
1.99800	12542
1.99867	12529
1.99933	12515
2.00000	12502
2.00067	12489
2.00133	12476
2.00200	12464
2.00267	12451
2.00333	12439
2.00400	12426
2.00467	12414
2.00533	12402
2.00600	12390
2.00667	12378
2.00733	12366
2.00800	12355
2.00867	12343
2.00933	12331
2.01000	12320
2.01067	12309
2.01133	12298
2.01200	12286
2.01267	12275
2.01333	12264
2.01400	12253
2.01467	12242
2.01533	12231
2.01600	12221
2.01667	12210
2.01733	12199
2.01800	12188
2.01867	12178
2.01933	12167
2.02000	12157
2.02067	12147
2.02133	12136
2.02200	12126
2.02267	12116
2.02333	12106
2.02400	12096
2.02467	12086
2.02533	12076
2.02600	12067
2.02667	12057
2.02733	12048
2.02800	12038
2.02867	12029
2.02933	12019
2.03000	12010
2.03067	12001
2.03133	11992
2.03200	11982
2.03267	11973
2.03333	11964
2.03400	11955
2.03467	11946
2.03533	11937
2.03600	11928
2.03667	11920
2.03733	11911
2.03800	11902
2.03867	11894
2.03933	11885
2.04000	11877
2.04067	11869
2.04133	11860
2.04200	11852
2.04267	11844
2.04333	11836
2.04400	11828
2.04467	11820
2.04533	11812
2.04600	11804
2.04667	11797
2.04733	11789
2.04800	11781
2.04867	11774
2.04933	11766
2.05000	11759
2.05067	11752
2.05133	11744
2.05200	11737
2.05267	11729
2.05333	11722
2.05400	11715
2.05467	11708
2.05533	11701
2.05600	11694
2.05667	11687
2.05733	11680
2.05800	11673
2.05867	11666
2.05933	11659
2.06000	11652
2.06067	11645
2.06133	11639
2.06200	11632
2.06267	11625
2.06333	11619
2.06400	11612
2.06467	11606
2.06533	11599
2.06600	11593
2.06667	11586
2.06733	11580
2.06800	11574
2.06867	11567
2.06933	11561
2.07000	11555
2.07067	11549
2.07133	11543
2.07200	11537
2.07267	11530
2.07333	11524
2.07400	11518
2.07467	11512
2.07533	11506
2.07600	11501
2.07667	11495
2.07733	11489
2.07800	11483
2.07867	11477
2.07933	11471
2.08000	11465
2.08067	11459
2.08133	11453
2.08200	11448
2.08267	11442
2.08333	11436
2.08400	11430
2.08467	11424
2.08533	11418
2.08600	11412
2.08667	11407
2.08733	11401
2.08800	11395
2.08867	11389
2.08933	11383
2.09000	11377
2.09067	11372
2.09133	11366
2.09200	11360
2.09267	11354
2.09333	11348
2.09400	11343
2.09467	11337
2.09533	11331
2.09600	11326
2.09667	11320
2.09733	11315
2.09800	11309
2.09867	11304
2.09933	11299
2.10000	11293
2.10067	11288
2.10133	11283
2.10200	11277
2.10267	11272
2.10333	11267
2.10400	11262
2.10467	11256
2.10533	11251
2.10600	11246
2.10667	11241
2.10733	11235
2.10800	11230
2.10867	11225
2.10933	11220
2.11000	11215
2.11067	11210
2.11133	11205
2.11200	11200
2.11267	11194
2.11333	11189
2.11400	11184
2.11467	11179
2.11533	11174
2.11600	11169
2.11667	11164
2.11733	11159
2.11800	11154
2.11867	11149
2.11933	11145
2.12000	11140
2.12067	11135
2.12133	11130
2.12200	11125
2.12267	11120
2.12333	11116
2.12400	11111
2.12467	11106
2.12533	11101
2.12600	11096
2.12667	11092
2.12733	11087
2.12800	11082
2.12867	11077
2.12933	11073
2.13000	11068
2.13067	11063
2.13133	11058
2.13200	11053
2.13267	11049
2.13333	11044
2.13400	11039
2.13467	11034
2.13533	11030
2.13600	11025
2.13667	11020
2.13733	11016
2.13800	11011
2.13867	11006
2.13933	11002
2.14000	10997
2.14067	10992
2.14133	10988
2.14200	10983
2.14267	10979
2.14333	10974
2.14400	10969
2.14467	10964
2.14533	10960
2.14600	10955
2.14667	10950
2.14733	10946
2.14800	10941
2.14867	10936
2.14933	10932
2.15000	10927
2.15067	10923
2.15133	10918
2.15200	10914
2.15267	10909
2.15333	10904
2.15400	10900
2.15467	10895
2.15533	10891
2.15600	10886
2.15667	10882
2.15733	10877
2.15800	10873
2.15867	10869
2.15933	10864
2.16000	10860
2.16067	10855
2.16133	10851
2.16200	10847
2.16267	10842
2.16333	10838
2.16400	10834
2.16467	10829
2.16533	10825
2.16600	10821
2.16667	10816
2.16733	10812
2.16800	10808
2.16867	10803
2.16933	10799
2.17000	10795
2.17067	10791
2.17133	10786
2.17200	10782
2.17267	10778
2.17333	10774
2.17400	10770
2.17467	10766
2.17533	10762
2.17600	10758
2.17667	10755
2.17733	10751
2.17800	10747
2.17867	10743
2.17933	10740
2.18000	10736
2.18067	10732
2.18133	10729
2.18200	10725
2.18267	10721
2.18333	10718
2.18400	10714
2.18467	10711
2.18533	10708
2.18600	10704
2.18667	10701
2.18733	10697
2.18800	10694
2.18867	10691
2.18933	10687
2.19000	10684
2.19067	10680
2.19133	10677
2.19200	10673
2.19267	10670
2.19333	10666
2.19400	10663
2.19467	10660
2.19533	10656
2.19600	10653
2.19667	10650
2.19733	10646
2.19800	10643
2.19867	10640
2.19933	10637
2.20000	10633
2.20067	10630
2.20133	10627
2.20200	10624
2.20267	10621
2.20333	10619
2.20400	10616
2.20467	10613
2.20533	10611
2.20600	10608
2.20667	10606
2.20733	10604
2.20800	10602
2.20867	10600
2.20933	10598
2.21000	10597
2.21067	10595
2.21133	10593
2.21200	10592
2.21267	10591
2.21333	10590
2.21400	10589
2.21467	10588
2.21533	10587
2.21600	10587
2.21667	10586
2.21733	10586
2.21800	10586
2.21867	10585
2.21933	10585
2.22000	10585
2.22067	10585
2.22133	10586
2.22200	10586
2.22267	10586
2.22333	10586
2.22400	10587
2.22467	10587
2.22533	10587
2.22600	10588
2.22667	10588
2.22733	10588
2.22800	10588
2.22867	10589
2.22933	10589
2.23000	10588
2.23067	10588
2.23133	10588
2.23200	10588
2.23267	10587
2.23333	10587
2.23400	10586
2.23467	10585
2.23533	10584
2.23600	10583
2.23667	10582
2.23733	10581
2.23800	10579
2.23867	10578
2.23933	10576
2.24000	10575
2.24067	10573
2.24133	10571
2.24200	10569
2.24267	10567
2.24333	10565
2.24400	10563
2.24467	10561
2.24533	10558
2.24600	10556
2.24667	10554
2.24733	10551
2.24800	10549
2.24867	10546
2.24933	10544
2.25000	10541
2.25067	10538
2.25133	10536
2.25200	10533
2.25267	10530
2.25333	10528
2.25400	10525
2.25467	10522
2.25533	10520
2.25600	10517
2.25667	10514
2.25733	10512
2.25800	10509
2.25867	10506
2.25933	10503
2.26000	10500
2.26067	10497
2.26133	10494
2.26200	10491
2.26267	10488
2.26333	10485
2.26400	10482
2.26467	10479
2.26533	10476
2.26600	10473
2.26667	10470
2.26733	10466
2.26800	10463
2.26867	10460
2.26933	10457
2.27000	10454
2.27067	10450
2.27133	10447
2.27200	10444
2.27267	10440
2.27333	10437
2.27400	10433
2.27467	10430
2.27533	10426
2.27600	10423
2.27667	10419
2.27733	10415
2.27800	10412
2.27867	10408
2.27933	10404
2.28000	10400
2.28067	10397
2.28133	10393
2.28200	10389
2.28267	10385
2.28333	10381
2.28400	10377
2.28467	10373
2.28533	10370
2.28600	10366
2.28667	10362
2.28733	10358
2.28800	10354
2.28867	10350
2.28933	10346
2.29000	10343
2.29067	10339
2.29133	10335
2.29200	10331
2.29267	10328
2.29333	10324
2.29400	10321
2.29467	10317
2.29533	10314
2.29600	10310
2.29667	10307
2.29733	10303
2.29800	10300
2.29867	10296
2.29933	10293
2.30000	10290
2.30067	10287
2.30133	10283
2.30200	10280
2.30267	10277
2.30333	10274
2.30400	10271
2.30467	10268
2.30533	10265
2.30600	10262
2.30667	10259
2.30733	10256
2.30800	10254
2.30867	10251
2.30933	10248
2.31000	10245
2.31067	10243
2.31133	10240
2.31200	10238
2.31267	10235
2.31333	10233
2.31400	10230
2.31467	10228
2.31533	10225
2.31600	10223
2.31667	10221
2.31733	10218
2.31800	10216
2.31867	10214
2.31933	10211
2.32000	10209
2.32067	10207
2.32133	10205
2.32200	10203
2.32267	10201
2.32333	10199
2.32400	10197
2.32467	10195
2.32533	10193
2.32600	10191
2.32667	10189
2.32733	10187
2.32800	10185
2.32867	10183
2.32933	10182
2.33000	10180
2.33067	10178
2.33133	10176
2.33200	10175
2.33267	10173
2.33333	10171
2.33400	10169
2.33467	10168
2.33533	10166
2.33600	10164
2.33667	10163
2.33733	10161
2.33800	10159
2.33867	10158
2.33933	10156
2.34000	10155
2.34067	10153
2.34133	10151
2.34200	10150
2.34267	10148
2.34333	10147
2.34400	10145
2.34467	10144
2.34533	10142
2.34600	10141
2.34667	10139
2.34733	10138
2.34800	10136
2.34867	10135
2.34933	10133
2.35000	10132
2.35067	10130
2.35133	10129
2.35200	10127
2.35267	10126
2.35333	10124
2.35400	10123
2.35467	10122
2.35533	10120
2.35600	10119
2.35667	10117
2.35733	10116
2.35800	10115
2.35867	10114
2.35933	10112
2.36000	10111
2.36067	10110
2.36133	10109
2.36200	10108
2.36267	10107
2.36333	10105
2.36400	10104
2.36467	10103
2.36533	10102
2.36600	10101
2.36667	10099
2.36733	10098
2.36800	10097
2.36867	10096
2.36933	10094
2.37000	10093
2.37067	10092
2.37133	10091
2.37200	10089
2.37267	10088
2.37333	10087
2.37400	10086
2.37467	10084
2.37533	10083
2.37600	10082
2.37667	10080
2.37733	10079
2.37800	10077
2.37867	10076
2.37933	10074
2.38000	10073
2.38067	10071
2.38133	10070
2.38200	10068
2.38267	10067
2.38333	10065
2.38400	10064
2.38467	10062
2.38533	10060
2.38600	10059
2.38667	10057
2.38733	10055
2.38800	10054
2.38867	10052
2.38933	10050
2.39000	10049
2.39067	10047
2.39133	10045
2.39200	10044
2.39267	10042
2.39333	10040
2.39400	10039
2.39467	10037
2.39533	10035
2.39600	10034
2.39667	10032
2.39733	10031
2.39800	10029
2.39867	10028
2.39933	10026
2.40000	10025
2.40067	10023
2.40133	10022
2.40200	10020
2.40267	10019
2.40333	10017
2.40400	10016
2.40467	10015
2.40533	10013
2.40600	10012
2.40667	10011
2.40733	10009
2.40800	10008
2.40867	10007
2.40933	10005
2.41000	10004
2.41067	10003
2.41133	10001
2.41200	10000
2.41267	9999
2.41333	9998
2.41400	9996
2.41467	9995
2.41533	9994
2.41600	9992
2.41667	9991
2.41733	9990
2.41800	9989
2.41867	9987
2.41933	9986
2.42000	9985
2.42067	9984
2.42133	9982
2.42200	9981
2.42267	9980
2.42333	9979
2.42400	9977
2.42467	9976
2.42533	9975
2.42600	9974
2.42667	9972
2.42733	9971
2.42800	9970
2.42867	9968
2.42933	9967
2.43000	9966
2.43067	9964
2.43133	9963
2.43200	9961
2.43267	9960
2.43333	9958
2.43400	9956
2.43467	9955
2.43533	9953
2.43600	9951
2.43667	9949
2.43733	9947
2.43800	9945
2.43867	9943
2.43933	9941
2.44000	9939
2.44067	9937
2.44133	9934
2.44200	9932
2.44267	9930
2.44333	9927
2.44400	9925
2.44467	9922
2.44533	9920
2.44600	9917
2.44667	9915
2.44733	9912
2.44800	9909
2.44867	9907
2.44933	9904
2.45000	9901
2.45067	9899
2.45133	9896
2.45200	9893
2.45267	9890
2.45333	9887
2.45400	9884
2.45467	9881
2.45533	9878
2.45600	9875
2.45667	9872
2.45733	9869
2.45800	9866
2.45867	9863
2.45933	9859
2.46000	9856
2.46067	9853
2.46133	9849
2.46200	9846
2.46267	9843
2.46333	9839
2.46400	9836
2.46467	9833
2.46533	9829
2.46600	9826
2.46667	9822
2.46733	9819
2.46800	9815
2.46867	9812
2.46933	9809
2.47000	9805
2.47067	9802
2.47133	9798
2.47200	9795
2.47267	9791
2.47333	9788
2.47400	9784
2.47467	9780
2.47533	9777
2.47600	9773
2.47667	9770
2.47733	9766
2.47800	9762
2.47867	9759
2.47933	9755
2.48000	9751
2.48067	9748
2.48133	9744
2.48200	9740
2.48267	9737
2.48333	9733
2.48400	9729
2.48467	9726
2.48533	9722
2.48600	9718
2.48667	9714
2.48733	9710
2.48800	9707
2.48867	9703
2.48933	9699
2.49000	9695
2.49067	9691
2.49133	9687
2.49200	9683
2.49267	9679
2.49333	9675
2.49400	9671
2.49467	9667
2.49533	9663
2.49600	9659
2.49667	9655
2.49733	9651
2.49800	9647
2.49867	9643
2.49933	9639
2.50000	9635
2.50067	9631
2.50133	9627
2.50200	9623
2.50267	9619
2.50333	9615
2.50400	9610
2.50467	9606
2.50533	9602
2.50600	9598
2.50667	9594
2.50733	9590
2.50800	9586
2.50867	9582
2.50933	9578
2.51000	9574
2.51067	9570
2.51133	9566
2.51200	9562
2.51267	9558
2.51333	9554
2.51400	9550
2.51467	9546
2.51533	9542
2.51600	9538
2.51667	9534
2.51733	9530
2.51800	9527
2.51867	9523
2.51933	9519
2.52000	9515
2.52067	9511
2.52133	9507
2.52200	9503
2.52267	9499
2.52333	9495
2.52400	9491
2.52467	9486
2.52533	9482
2.52600	9478
2.52667	9474
2.52733	9470
2.52800	9466
2.52867	9462
2.52933	9458
2.53000	9454
2.53067	9450
2.53133	9446
2.53200	9442
2.53267	9438
2.53333	9434
2.53400	9430
2.53467	9426
2.53533	9422
2.53600	9419
2.53667	9415
2.53733	9411
2.53800	9407
2.53867	9403
2.53933	9399
2.54000	9395
2.54067	9392
2.54133	9388
2.54200	9384
2.54267	9381
2.54333	9377
2.54400	9374
2.54467	9370
2.54533	9366
2.54600	9363
2.54667	9359
2.54733	9356
2.54800	9353
2.54867	9349
2.54933	9346
2.55000	9342
2.55067	9339
2.55133	9335
2.55200	9332
2.55267	9329
2.55333	9325
2.55400	9322
2.55467	9319
2.55533	9315
2.55600	9312
2.55667	9309
2.55733	9306
2.55800	9302
2.55867	9299
2.55933	9296
2.56000	9293
2.56067	9289
2.56133	9286
2.56200	9283
2.56267	9280
2.56333	9277
2.56400	9274
2.56467	9271
2.56533	9267
2.56600	9264
2.56667	9261
2.56733	9258
2.56800	9255
2.56867	9252
2.56933	9249
2.57000	9247
2.57067	9244
2.57133	9241
2.57200	9238
2.57267	9235
2.57333	9232
2.57400	9230
2.57467	9227
2.57533	9224
2.57600	9221
2.57667	9219
2.57733	9216
2.57800	9214
2.57867	9211
2.57933	9209
2.58000	9206
2.58067	9204
2.58133	9201
2.58200	9199
2.58267	9196
2.58333	9194
2.58400	9192
2.58467	9189
2.58533	9187
2.58600	9184
2.58667	9182
2.58733	9180
2.58800	9177
2.58867	9175
2.58933	9173
2.59000	9171
2.59067	9168
2.59133	9166
2.59200	9164
2.59267	9162
2.59333	9160
2.59400	9157
2.59467	9155
2.59533	9153
2.59600	9151
2.59667	9149
2.59733	9147
2.59800	9145
2.59867	9143
2.59933	9141
2.60000	9139
2.60067	9137
2.60133	9135
2.60200	9133
2.60267	9131
2.60333	9129
2.60400	9127
2.60467	9125
2.60533	9123
2.60600	9121
2.60667	9119
2.60733	9117
2.60800	9114
2.60867	9112
2.60933	9110
2.61000	9108
2.61067	9106
2.61133	9104
2.61200	9102
2.61267	9100
2.61333	9098
2.61400	9096
2.61467	9094
2.61533	9092
2.61600	9090
2.61667	9088
2.61733	9086
2.61800	9084
2.61867	9082
2.61933	9080
2.62000	9078
2.62067	9076
2.62133	9074
2.62200	9072
2.62267	9070
2.62333	9069
2.62400	9067
2.62467	9065
2.62533	9063
2.62600	9061
2.62667	9059
2.62733	9057
2.62800	9055
2.62867	9053
2.62933	9051
2.63000	9049
2.63067	9047
2.63133	9045
2.63200	9043
2.63267	9041
2.63333	9039
2.63400	9037
2.63467	9035
2.63533	9032
2.63600	9030
2.63667	9028
2.63733	9026
2.63800	9024
2.63867	9021
2.63933	9019
2.64000	9017
2.64067	9014
2.64133	9012
2.64200	9010
2.64267	9007
2.64333	9005
2.64400	9003
2.64467	9000
2.64533	8998
2.64600	8995
2.64667	8993
2.64733	8990
2.64800	8988
2.64867	8985
2.64933	8982
2.65000	8980
2.65067	8977
2.65133	8974
2.65200	8971
2.65267	8969
2.65333	8966
2.65400	8963
2.65467	8961
2.65533	8958
2.65600	8955
2.65667	8953
2.65733	8950
2.65800	8947
2.65867	8944
2.65933	8941
2.66000	8938
2.66067	8936
2.66133	8933
2.66200	8930
2.66267	8927
2.66333	8924
2.66400	8921
2.66467	8918
2.66533	8915
2.66600	8912
2.66667	8909
2.66733	8906
2.66800	8903
2.66867	8900
2.66933	8897
2.67000	8894
2.67067	8891
2.67133	8888
2.67200	8885
2.67267	8882
2.67333	8879
2.67400	8876
2.67467	8873
2.67533	8870
2.67600	8867
2.67667	8864
2.67733	8861
2.67800	8858
2.67867	8855
2.67933	8852
2.68000	8849
2.68067	8846
2.68133	8843
2.68200	8840
2.68267	8837
2.68333	8834
2.68400	8831
2.68467	8828
2.68533	8825
2.68600	8822
2.68667	8819
2.68733	8816
2.68800	8813
2.68867	8811
2.68933	8808
2.69000	8805
2.69067	8802
2.69133	8799
2.69200	8797
2.69267	8794
2.69333	8791
2.69400	8789
2.69467	8786
2.69533	8784
2.69600	8781
2.69667	8778
2.69733	8776
2.69800	8773
2.69867	8770
2.69933	8768
2.70000	8765
2.70067	8763
2.70133	8760
2.70200	8757
2.70267	8754
2.70333	8752
2.70400	8749
2.70467	8746
2.70533	8744
2.70600	8741
2.70667	8738
2.70733	8736
2.70800	8733
2.70867	8731
2.70933	8728
2.71000	8726
2.71067	8723
2.71133	8721
2.71200	8718
2.71267	8716
2.71333	8714
2.71400	8711
2.71467	8709
2.71533	8706
2.71600	8704
2.71667	8702
2.71733	8699
2.71800	8697
2.71867	8695
2.71933	8692
2.72000	8690
2.72067	8688
2.72133	8686
2.72200	8683
2.72267	8681
2.72333	8679
2.72400	8677
2.72467	8674
2.72533	8672
2.72600	8670
2.72667	8668
2.72733	8666
2.72800	8664
2.72867	8662
2.72933	8660
2.73000	8658
2.73067	8656
2.73133	8654
2.73200	8652
2.73267	8651
2.73333	8649
2.73400	8647
2.73467	8645
2.73533	8644
2.73600	8642
2.73667	8640
2.73733	8638
2.73800	8637
2.73867	8635
2.73933	8634
2.74000	8632
2.74067	8630
2.74133	8629
2.74200	8627
2.74267	8626
2.74333	8625
2.74400	8623
2.74467	8622
2.74533	8620
2.74600	8619
2.74667	8617
2.74733	8616
2.74800	8614
2.74867	8613
2.74933	8612
2.75000	8610
2.75067	8609
2.75133	8608
2.75200	8607
2.75267	8606
2.75333	8604
2.75400	8603
2.75467	8602
2.75533	8601
2.75600	8600
2.75667	8599
2.75733	8599
2.75800	8598
2.75867	8597
2.75933	8596
2.76000	8596
2.76067	8595
2.76133	8594
2.76200	8594
2.76267	8593
2.76333	8593
2.76400	8592
2.76467	8592
2.76533	8591
2.76600	8591
2.76667	8591
2.76733	8590
2.76800	8590
2.76867	8590
2.76933	8589
2.77000	8589
2.77067	8589
2.77133	8589
2.77200	8589
2.77267	8589
2.77333	8588
2.77400	8588
2.77467	8588
2.77533	8588
2.77600	8589
2.77667	8589
2.77733	8589
2.77800	8589
2.77867	8590
2.77933	8590
2.78000	8590
2.78067	8591
2.78133	8592
2.78200	8592
2.78267	8593
2.78333	8594
2.78400	8595
2.78467	8596
2.78533	8597
2.78600	8599
2.78667	8600
2.78733	8602
2.78800	8603
2.78867	8605
2.78933	8607
2.79000	8609
2.79067	8611
2.79133	8613
2.79200	8616
2.79267	8618
2.79333	8621
2.79400	8624
2.79467	8627
2.79533	8630
2.79600	8634
2.79667	8637
2.79733	8641
2.79800	8644
2.79867	8648
2.79933	8652
2.80000	8656
2.80067	8660
2.80133	8664
2.80200	8669
2.80267	8673
2.80333	8678
2.80400	8683
2.80467	8687
2.80533	8692
2.80600	8697
2.80667	8702
2.80733	8708
2.80800	8713
2.80867	8718
2.80933	8723
2.81000	8729
2.81067	8734
2.81133	8740
2.81200	8745
2.81267	8751
2.81333	8756
2.81400	8762
2.81467	8767
2.81533	8773
2.81600	8778
2.81667	8783
2.81733	8789
2.81800	8794
2.81867	8799
2.81933	8803
2.82000	8808
2.82067	8813
2.82133	8817
2.82200	8821
2.82267	8825
2.82333	8829
2.82400	8833
2.82467	8837
2.82533	8841
2.82600	8844
2.82667	8847
2.82733	8850
2.82800	8853
2.82867	8855
2.82933	8857
2.83000	8859
2.83067	8861
2.83133	8862
2.83200	8863
2.83267	8864
2.83333	8864
2.83400	8865
2.83467	8865
2.83533	8864
2.83600	8864
2.83667	8863
2.83733	8862
2.83800	8861
2.83867	8859
2.83933	8857
2.84000	8855
2.84067	8853
2.84133	8851
2.84200	8848
2.84267	8845
2.84333	8842
2.84400	8839
2.84467	8835
2.84533	8831
2.84600	8828
2.84667	8824
2.84733	8819
2.84800	8815
2.84867	8811
2.84933	8806
2.85000	8802
2.85067	8797
2.85133	8792
2.85200	8787
2.85267	8782
2.85333	8777
2.85400	8772
2.85467	8767
2.85533	8761
2.85600	8756
2.85667	8751
2.85733	8745
2.85800	8740
2.85867	8734
2.85933	8729
2.86000	8723
2.86067	8718
2.86133	8713
2.86200	8707
2.86267	8702
2.86333	8697
2.86400	8691
2.86467	8686
2.86533	8681
2.86600	8676
2.86667	8671
2.86733	8666
2.86800	8661
2.86867	8656
2.86933	8651
2.87000	8646
2.87067	8642
2.87133	8637
2.87200	8633
2.87267	8629
2.87333	8625
2.87400	8621
2.87467	8617
2.87533	8613
2.87600	8610
2.87667	8606
2.87733	8603
2.87800	8600
2.87867	8597
2.87933	8594
2.88000	8592
2.88067	8589
2.88133	8587
2.88200	8585
2.88267	8583
2.88333	8581
2.88400	8580
2.88467	8579
2.88533	8578
2.88600	8577
2.88667	8576
2.88733	8576
2.88800	8575
2.88867	8575
2.88933	8576
2.89000	8576
2.89067	8576
2.89133	8577
2.89200	8578
2.89267	8579
2.89333	8581
2.89400	8582
2.89467	8584
2.89533	8586
2.89600	8588
2.89667	8591
2.89733	8593
2.89800	8596
2.89867	8598
2.89933	8601
2.90000	8604
2.90067	8607
2.90133	8611
2.90200	8614
2.90267	8617
2.90333	8621
2.90400	8624
2.90467	8628
2.90533	8631
2.90600	8635
2.90667	8638
2.90733	8642
2.90800	8646
2.90867	8649
2.90933	8652
2.91000	8656
2.91067	8659
2.91133	8662
2.91200	8665
2.91267	8668
2.91333	8671
2.91400	8673
2.91467	8675
2.91533	8678
2.91600	8679
2.91667	8681
2.91733	8683
2.91800	8684
2.91867	8685
2.91933	8686
2.92000	8687
2.92067	8687
2.92133	8687
2.92200	8687
2.92267	8686
2.92333	8686
2.92400	8685
2.92467	8683
2.92533	8682
2.92600	8680
2.92667	8678
2.92733	8676
2.92800	8673
2.92867	8670
2.92933	8667
2.93000	8663
2.93067	8660
2.93133	8656
2.93200	8651
2.93267	8647
2.93333	8642
2.93400	8637
2.93467	8632
2.93533	8627
2.93600	8621
2.93667	8616
2.93733	8610
2.93800	8604
2.93867	8597
2.93933	8591
2.94000	8584
2.94067	8578
2.94133	8571
2.94200	8564
2.94267	8557
2.94333	8550
2.94400	8542
2.94467	8535
2.94533	8527
2.94600	8520
2.94667	8512
2.94733	8504
2.94800	8496
2.94867	8489
2.94933	8481
2.95000	8473
2.95067	8465
2.95133	8457
2.95200	8449
2.95267	8441
2.95333	8433
2.95400	8425
2.95467	8417
2.95533	8409
2.95600	8402
2.95667	8394
2.95733	8386
2.95800	8378
2.95867	8371
2.95933	8363
2.96000	8356
2.96067	8348
2.96133	8341
2.96200	8334
2.96267	8326
2.96333	8319
2.96400	8312
2.96467	8305
2.96533	8298
2.96600	8292
2.96667	8285
2.96733	8278
2.96800	8272
2.96867	8266
2.96933	8259
2.97000	8253
2.97067	8247
2.97133	8241
2.97200	8235
2.97267	8230
2.97333	8224
2.97400	8219
2.97467	8213
2.97533	8208
2.97600	8203
2.97667	8197
2.97733	8192
2.97800	8187
2.97867	8183
2.97933	8178
2.98000	8173
2.98067	8168
2.98133	8164
2.98200	8159
2.98267	8155
2.98333	8150
2.98400	8146
2.98467	8142
2.98533	8138
2.98600	8134
2.98667	8130
2.98733	8126
2.98800	8122
2.98867	8118
2.98933	8115
2.99000	8111
2.99067	8108
2.99133	8104
2.99200	8101
2.99267	8097
2.99333	8094
2.99400	8091
2.99467	8088
2.99533	8085
2.99600	8082
2.99667	8079
2.99733	8076
2.99800	8073
2.99867	8070
2.99933	8068
3.00000	8065
3.00067	8063
3.00133	8060
3.00200	8058
3.00267	8055
3.00333	8053
3.00400	8050
3.00467	8048
3.00533	8046
3.00600	8044
3.00667	8042
3.00733	8039
3.00800	8037
3.00867	8035
3.00933	8033
3.01000	8032
3.01067	8030
3.01133	8028
3.01200	8026
3.01267	8024
3.01333	8022
3.01400	8021
3.01467	8019
3.01533	8017
3.01600	8016
3.01667	8014
3.01733	8013
3.01800	8011
3.01867	8010
3.01933	8009
3.02000	8007
3.02067	8006
3.02133	8005
3.02200	8004
3.02267	8003
3.02333	8002
3.02400	8001
3.02467	8000
3.02533	7999
3.02600	7998
3.02667	7997
3.02733	7996
3.02800	7995
3.02867	7995
3.02933	7994
3.03000	7993
3.03067	7993
3.03133	7992
3.03200	7991
3.03267	7991
3.03333	7990
3.03400	7990
3.03467	7990
3.03533	7989
3.03600	7989
3.03667	7989
3.03733	7988
3.03800	7988
3.03867	7988
3.03933	7988
3.04000	7988
3.04067	7988
3.04133	7988
3.04200	7988
3.04267	7988
3.04333	7988
3.04400	7989
3.04467	7989
3.04533	7989
3.04600	7989
3.04667	7990
3.04733	7990
3.04800	7990
3.04867	7991
3.04933	7991
3.05000	7991
3.05067	7992
3.05133	7992
3.05200	7992
3.05267	7993
3.05333	7993
3.05400	7993
3.05467	7994
3.05533	7994
3.05600	7994
3.05667	7995
3.05733	7995
3.05800	7996
3.05867	7996
3.05933	7996
3.06000	7997
3.06067	7997
3.06133	7998
3.06200	7998
3.06267	7999
3.06333	7999
3.06400	8000
3.06467	8001
3.06533	8001
3.06600	8002
3.06667	8002
3.06733	8003
3.06800	8004
3.06867	8004
3.06933	8005
3.07000	8006
3.07067	8006
3.07133	8007
3.07200	8008
3.07267	8009
3.07333	8010
3.07400	8011
3.07467	8011
3.07533	8012
3.07600	8013
3.07667	8014
3.07733	8015
3.07800	8016
3.07867	8016
3.07933	8017
3.08000	8018
3.08067	8019
3.08133	8020
3.08200	8021
3.08267	8022
3.08333	8023
3.08400	8024
3.08467	8025
3.08533	8026
3.08600	8027
3.08667	8028
3.08733	8029
3.08800	8030
3.08867	8031
3.08933	8032
3.09000	8033
3.09067	8034
3.09133	8035
3.09200	8036
3.09267	8036
3.09333	8037
3.09400	8038
3.09467	8039
3.09533	8040
3.09600	8041
3.09667	8041
3.09733	8042
3.09800	8043
3.09867	8043
3.09933	8044
3.10000	8045
3.10067	8045
3.10133	8046
3.10200	8046
3.10267	8047
3.10333	8047
3.10400	8047
3.10467	8048
3.10533	8048
3.10600	8048
3.10667	8049
3.10733	8049
3.10800	8049
3.10867	8050
3.10933	8050
3.11000	8050
3.11067	8050
3.11133	8051
3.11200	8051
3.11267	8051
3.11333	8052
3.11400	8052
3.11467	8052
3.11533	8052
3.11600	8053
3.11667	8053
3.11733	8053
3.11800	8054
3.11867	8054
3.11933	8054
3.12000	8055
3.12067	8055
3.12133	8056
3.12200	8056
3.12267	8056
3.12333	8057
3.12400	8057
3.12467	8058
3.12533	8058
3.12600	8059
3.12667	8059
3.12733	8060
3.12800	8060
3.12867	8061
3.12933	8061
3.13000	8062
3.13067	8063
3.13133	8064
3.13200	8064
3.13267	8065
3.13333	8066
3.13400	8067
3.13467	8068
3.13533	8069
3.13600	8070
3.13667	8071
3.13733	8072
3.13800	8073
3.13867	8074
3.13933	8075
3.14000	8076
3.14067	8077
3.14133	8078
3.14200	8079
3.14267	8081
3.14333	8082
3.14400	8083
3.14467	8084
3.14533	8086
3.14600	8087
3.14667	8088
3.14733	8090
3.14800	8091
3.14867	8093
3.14933	8094
3.15000	8096
3.15067	8097
3.15133	8099
3.15200	8100
3.15267	8102
3.15333	8103
3.15400	8105
3.15467	8107
3.15533	8108
3.15600	8110
3.15667	8111
3.15733	8113
3.15800	8115
3.15867	8117
3.15933	8119
3.16000	8120
3.16067	8122
3.16133	8124
3.16200	8126
3.16267	8128
3.16333	8131
3.16400	8133
3.16467	8135
3.16533	8137
3.16600	8139
3.16667	8141
3.16733	8144
3.16800	8146
3.16867	8148
3.16933	8150
3.17000	8153
3.17067	8155
3.17133	8157
3.17200	8160
3.17267	8162
3.17333	8164
3.17400	8167
3.17467	8169
3.17533	8172
3.17600	8174
3.17667	8177
3.17733	8179
3.17800	8181
3.17867	8184
3.17933	8186
3.18000	8189
3.18067	8192
3.18133	8194
3.18200	8197
3.18267	8200
3.18333	8203
3.18400	8205
3.18467	8208
3.18533	8211
3.18600	8214
3.18667	8217
3.18733	8220
3.18800	8223
3.18867	8226
3.18933	8229
3.19000	8231
3.19067	8234
3.19133	8237
3.19200	8240
3.19267	8243
3.19333	8246
3.19400	8249
3.19467	8252
3.19533	8255
3.19600	8258
3.19667	8261
3.19733	8264
3.19800	8267
3.19867	8270
3.19933	8273
3.20000	8277
3.20067	8280
3.20133	8283
3.20200	8286
3.20267	8289
3.20333	8292
3.20400	8296
3.20467	8299
3.20533	8302
3.20600	8305
3.20667	8309
3.20733	8312
3.20800	8315
3.20867	8318
3.20933	8322
3.21000	8325
3.21067	8329
3.21133	8332
3.21200	8336
3.21267	8339
3.21333	8343
3.21400	8347
3.21467	8351
3.21533	8354
3.21600	8358
3.21667	8362
3.21733	8366
3.21800	8370
3.21867	8374
3.21933	8378
3.22000	8382
3.22067	8385
3.22133	8389
3.22200	8393
3.22267	8397
3.22333	8401
3.22400	8405
3.22467	8409
3.22533	8413
3.22600	8417
3.22667	8421
3.22733	8425
3.22800	8429
3.22867	8433
3.22933	8437
3.23000	8441
3.23067	8445
3.23133	8450
3.23200	8454
3.23267	8458
3.23333	8462
3.23400	8466
3.23467	8470
3.23533	8474
3.23600	8479
3.23667	8483
3.23733	8487
3.23800	8491
3.23867	8495
3.23933	8500
3.24000	8504
3.24067	8508
3.24133	8513
3.24200	8517
3.24267	8521
3.24333	8526
3.24400	8530
3.24467	8535
3.24533	8539
3.24600	8544
3.24667	8548
3.24733	8553
3.24800	8557
3.24867	8562
3.24933	8566
3.25000	8571
3.25067	8575
3.25133	8580
3.25200	8584
3.25267	8589
3.25333	8593
3.25400	8598
3.25467	8602
3.25533	8607
3.25600	8612
3.25667	8616
3.25733	8621
3.25800	8626
3.25867	8631
3.25933	8636
3.26000	8640
3.26067	8645
3.26133	8650
3.26200	8655
3.26267	8660
3.26333	8665
3.26400	8670
3.26467	8675
3.26533	8680
3.26600	8685
3.26667	8690
3.26733	8695
3.26800	8700
3.26867	8705
3.26933	8710
3.27000	8715
3.27067	8720
3.27133	8725
3.27200	8730
3.27267	8735
3.27333	8740
3.27400	8745
3.27467	8750
3.27533	8755
3.27600	8760
3.27667	8766
3.27733	8771
3.27800	8776
3.27867	8781
3.27933	8786
3.28000	8792
3.28067	8797
3.28133	8802
3.28200	8808
3.28267	8813
3.28333	8818
3.28400	8824
3.28467	8829
3.28533	8835
3.28600	8840
3.28667	8846
3.28733	8851
3.28800	8857
3.28867	8862
3.28933	8868
3.29000	8873
3.29067	8879
3.29133	8884
3.29200	8890
3.29267	8895
3.29333	8901
3.29400	8906
3.29467	8912
3.29533	8917
3.29600	8923
3.29667	8928
3.29733	8933
3.29800	8939
3.29867	8944
3.29933	8949
3.30000	8955
3.30067	8960
3.30133	8965
3.30200	8971
3.30267	8976
3.30333	8981
3.30400	8987
3.30467	8992
3.30533	8997
3.30600	9003
3.30667	9008
3.30733	9013
3.30800	9019
3.30867	9024
3.30933	9029
3.31000	9034
3.31067	9039
3.31133	9045
3.31200	9050
3.31267	9055
3.31333	9060
3.31400	9065
3.31467	9070
3.31533	9076
3.31600	9081
3.31667	9086
3.31733	9091
3.31800	9096
3.31867	9101
3.31933	9106
3.32000	9111
3.32067	9116
3.32133	9120
3.32200	9125
3.32267	9130
3.32333	9135
3.32400	9140
3.32467	9145
3.32533	9150
3.32600	9154
3.32667	9159
3.32733	9164
3.32800	9168
3.32867	9173
3.32933	9178
3.33000	9182
3.33067	9187
3.33133	9191
3.33200	9196
3.33267	9200
3.33333	9204
3.33400	9209
3.33467	9213
3.33533	9217
3.33600	9222
3.33667	9226
3.33733	9230
3.33800	9234
3.33867	9239
3.33933	9243
3.34000	9247
3.34067	9251
3.34133	9255
3.34200	9259
3.34267	9263
3.34333	9267
3.34400	9270
3.34467	9274
3.34533	9278
3.34600	9282
3.34667	9286
3.34733	9289
3.34800	9293
3.34867	9297
3.34933	9300
3.35000	9304
3.35067	9307
3.35133	9311
3.35200	9314
3.35267	9318
3.35333	9321
3.35400	9324
3.35467	9327
3.35533	9331
3.35600	9334
3.35667	9337
3.35733	9340
3.35800	9343
3.35867	9346
3.35933	9348
3.36000	9351
3.36067	9354
3.36133	9356
3.36200	9359
3.36267	9361
3.36333	9364
3.36400	9366
3.36467	9368
3.36533	9371
3.36600	9373
3.36667	9375
3.36733	9377
3.36800	9379
3.36867	9381
3.36933	9383
3.37000	9385
3.37067	9387
3.37133	9389
3.37200	9391
3.37267	9393
3.37333	9395
3.37400	9396
3.37467	9398
3.37533	9399
3.37600	9401
3.37667	9402
3.37733	9404
3.37800	9405
3.37867	9406
3.37933	9407
3.38000	9408
3.38067	9409
3.38133	9410
3.38200	9411
3.38267	9411
3.38333	9412
3.38400	9412
3.38467	9413
3.38533	9413
3.38600	9414
3.38667	9414
3.38733	9414
3.38800	9414
3.38867	9414
3.38933	9414
3.39000	9414
3.39067	9414
3.39133	9413
3.39200	9413
3.39267	9413
3.39333	9412
3.39400	9412
3.39467	9411
3.39533	9410
3.39600	9410
3.39667	9409
3.39733	9408
3.39800	9407
3.39867	9406
3.39933	9404
3.40000	9403
3.40067	9401
3.40133	9400
3.40200	9398
3.40267	9397
3.40333	9395
3.40400	9393
3.40467	9391
3.40533	9389
3.40600	9387
3.40667	9384
3.40733	9382
3.40800	9379
3.40867	9377
3.40933	9374
3.41000	9371
3.41067	9368
3.41133	9365
3.41200	9362
3.41267	9359
3.41333	9355
3.41400	9352
3.41467	9348
3.41533	9344
3.41600	9341
3.41667	9337
3.41733	9333
3.41800	9329
3.41867	9325
3.41933	9320
3.42000	9316
3.42067	9311
3.42133	9307
3.42200	9302
3.42267	9297
3.42333	9293
3.42400	9288
3.42467	9283
3.42533	9278
3.42600	9272
3.42667	9267
3.42733	9262
3.42800	9256
3.42867	9251
3.42933	9246
3.43000	9240
3.43067	9234
3.43133	9229
3.43200	9223
3.43267	9217
3.43333	9211
3.43400	9205
3.43467	9199
3.43533	9193
3.43600	9187
3.43667	9181
3.43733	9175
3.43800	9169
3.43867	9162
3.43933	9156
3.44000	9150
3.44067	9143
3.44133	9137
3.44200	9131
3.44267	9124
3.44333	9118
3.44400	9112
3.44467	9105
3.44533	9099
3.44600	9093
3.44667	9086
3.44733	9080
3.44800	9074
3.44867	9067
3.44933	9061
3.45000	9054
3.45067	9048
3.45133	9042
3.45200	9035
3.45267	9029
3.45333	9023
3.45400	9016
3.45467	9010
3.45533	9004
3.45600	8997
3.45667	8991
3.45733	8985
3.45800	8979
3.45867	8972
3.45933	8966
3.46000	8960
3.46067	8954
3.46133	8948
3.46200	8942
3.46267	8936
3.46333	8930
3.46400	8924
3.46467	8918
3.46533	8913
3.46600	8907
3.46667	8901
3.46733	8896
3.46800	8890
3.46867	8884
3.46933	8879
3.47000	8873
3.47067	8868
3.47133	8863
3.47200	8857
3.47267	8852
3.47333	8847
3.47400	8842
3.47467	8837
3.47533	8832
3.47600	8827
3.47667	8822
3.47733	8818
3.47800	8813
3.47867	8808
3.47933	8804
3.48000	8799
3.48067	8795
3.48133	8791
3.48200	8786
3.48267	8782
3.48333	8778
3.48400	8774
3.48467	8770
3.48533	8766
3.48600	8763
3.48667	8759
3.48733	8756
3.48800	8752
3.48867	8749
3.48933	8746
3.49000	8743
3.49067	8740
3.49133	8738
3.49200	8735
3.49267	8733
3.49333	8730
3.49400	8728
3.49467	8726
3.49533	8724
3.49600	8723
3.49667	8721
3.49733	8720
3.49800	8719
3.49867	8718
3.49933	8717
3.50000	8717
3.50067	8716
3.50133	8716
3.50200	8716
3.50267	8716
3.50333	8717
3.50400	8717
3.50467	8718
3.50533	8719
3.50600	8721
3.50667	8722
3.50733	8724
3.50800	8726
3.50867	8728
3.50933	8730
3.51000	8733
3.51067	8736
3.51133	8739
3.51200	8743
3.51267	8747
3.51333	8751
3.51400	8755
3.51467	8760
3.51533	8766
3.51600	8771
3.51667	8777
3.51733	8783
3.51800	8790
3.51867	8797
3.51933	8805
3.52000	8813
3.52067	8821
3.52133	8830
3.52200	8839
3.52267	8849
3.52333	8859
3.52400	8869
3.52467	8880
3.52533	8892
3.52600	8904
3.52667	8916
3.52733	8929
3.52800	8942
3.52867	8956
3.52933	8970
3.53000	8984
3.53067	8999
3.53133	9015
3.53200	9031
3.53267	9047
3.53333	9064
3.53400	9081
3.53467	9099
3.53533	9117
3.53600	9135
3.53667	9154
3.53733	9173
3.53800	9193
3.53867	9213
3.53933	9233
3.54000	9253
3.54067	9274
3.54133	9295
3.54200	9317
3.54267	9338
3.54333	9360
3.54400	9383
3.54467	9405
3.54533	9428
3.54600	9450
3.54667	9474
3.54733	9497
3.54800	9520
3.54867	9543
3.54933	9567
3.55000	9590
3.55067	9614
3.55133	9637
3.55200	9661
3.55267	9685
3.55333	9708
3.55400	9732
3.55467	9755
3.55533	9778
3.55600	9801
3.55667	9824
3.55733	9847
3.55800	9870
3.55867	9893
3.55933	9915
3.56000	9938
3.56067	9960
3.56133	9982
3.56200	10003
3.56267	10025
3.56333	10046
3.56400	10067
3.56467	10087
3.56533	10107
3.56600	10127
3.56667	10147
3.56733	10166
3.56800	10185
3.56867	10203
3.56933	10221
3.57000	10239
3.57067	10257
3.57133	10274
3.57200	10291
3.57267	10308
3.57333	10324
3.57400	10340
3.57467	10356
3.57533	10372
3.57600	10387
3.57667	10403
3.57733	10418
3.57800	10432
3.57867	10447
3.57933	10462
3.58000	10476
3.58067	10490
3.58133	10504
3.58200	10519
3.58267	10533
3.58333	10547
3.58400	10561
3.58467	10575
3.58533	10589
3.58600	10603
3.58667	10617
3.58733	10631
3.58800	10645
3.58867	10660
3.58933	10674
3.59000	10688
3.59067	10702
3.59133	10717
3.59200	10731
3.59267	10745
3.59333	10760
3.59400	10775
3.59467	10790
3.59533	10804
3.59600	10819
3.59667	10834
3.59733	10850
3.59800	10865
3.59867	10880
3.59933	10896
3.60000	10911
3.60067	10927
3.60133	10943
3.60200	10959
3.60267	10974
3.60333	10990
3.60400	11006
3.60467	11022
3.60533	11038
3.60600	11053
3.60667	11069
3.60733	11084
3.60800	11100
3.60867	11115
3.60933	11129
3.61000	11144
3.61067	11158
3.61133	11172
3.61200	11186
3.61267	11199
3.61333	11212
3.61400	11225
3.61467	11237
3.61533	11249
3.61600	11260
3.61667	11271
3.61733	11282
3.61800	11291
3.61867	11301
3.61933	11310
3.62000	11318
3.62067	11325
3.62133	11332
3.62200	11338
3.62267	11343
3.62333	11348
3.62400	11352
3.62467	11356
3.62533	11358
3.62600	11360
3.62667	11361
3.62733	11362
3.62800	11361
3.62867	11360
3.62933	11358
3.63000	11355
3.63067	11352
3.63133	11347
3.63200	11342
3.63267	11335
3.63333	11328
3.63400	11320
3.63467	11311
3.63533	11302
3.63600	11291
3.63667	11280
3.63733	11267
3.63800	11254
3.63867	11240
3.63933	11226
3.64000	11210
3.64067	11194
3.64133	11177
3.64200	11159
3.64267	11140
3.64333	11121
3.64400	11101
3.64467	11080
3.64533	11058
3.64600	11036
3.64667	11013
3.64733	10990
3.64800	10965
3.64867	10941
3.64933	10915
3.65000	10890
3.65067	10863
3.65133	10836
3.65200	10809
3.65267	10781
3.65333	10752
3.65400	10724
3.65467	10694
3.65533	10665
3.65600	10635
3.65667	10605
3.65733	10574
3.65800	10543
3.65867	10512
3.65933	10480
3.66000	10449
3.66067	10417
3.66133	10385
3.66200	10353
3.66267	10321
3.66333	10288
3.66400	10256
3.66467	10223
3.66533	10191
3.66600	10158
3.66667	10125
3.66733	10093
3.66800	10060
3.66867	10027
3.66933	9995
3.67000	9963
3.67067	9930
3.67133	9898
3.67200	9867
3.67267	9835
3.67333	9803
3.67400	9772
3.67467	9741
3.67533	9710
3.67600	9679
3.67667	9649
3.67733	9619
3.67800	9589
3.67867	9559
3.67933	9530
3.68000	9501
3.68067	9472
3.68133	9443
3.68200	9415
3.68267	9387
3.68333	9360
3.68400	9332
3.68467	9305
3.68533	9279
3.68600	9252
3.68667	9226
3.68733	9201
3.68800	9175
3.68867	9150
3.68933	9126
3.69000	9101
3.69067	9077
3.69133	9054
3.69200	9030
3.69267	9007
3.69333	8985
3.69400	8962
3.69467	8940
3.69533	8919
3.69600	8897
3.69667	8876
3.69733	8856
3.69800	8835
3.69867	8815
3.69933	8796
3.70000	8776
3.70067	8757
3.70133	8738
3.70200	8719
3.70267	8701
3.70333	8683
3.70400	8665
3.70467	8648
3.70533	8631
3.70600	8614
3.70667	8597
3.70733	8580
3.70800	8564
3.70867	8548
3.70933	8533
3.71000	8517
3.71067	8502
3.71133	8487
3.71200	8472
3.71267	8457
3.71333	8443
3.71400	8429
3.71467	8415
3.71533	8401
3.71600	8388
3.71667	8374
3.71733	8361
3.71800	8348
3.71867	8336
3.71933	8323
3.72000	8311
3.72067	8299
3.72133	8287
3.72200	8275
3.72267	8263
3.72333	8252
3.72400	8241
3.72467	8230
3.72533	8219
3.72600	8208
3.72667	8197
3.72733	8187
3.72800	8176
3.72867	8166
3.72933	8156
3.73000	8146
3.73067	8136
3.73133	8126
3.73200	8116
3.73267	8107
3.73333	8097
3.73400	8088
3.73467	8079
3.73533	8070
3.73600	8061
3.73667	8052
3.73733	8044
3.73800	8035
3.73867	8026
3.73933	8018
3.74000	8010
3.74067	8001
3.74133	7993
3.74200	7985
3.74267	7977
3.74333	7969
3.74400	7962
3.74467	7954
3.74533	7946
3.74600	7939
3.74667	7931
3.74733	7924
3.74800	7916
3.74867	7909
3.74933	7902
3.75000	7895
3.75067	7888
3.75133	7881
3.75200	7874
3.75267	7867
3.75333	7860
3.75400	7853
3.75467	7846
3.75533	7840
3.75600	7833
3.75667	7827
3.75733	7820
3.75800	7814
3.75867	7807
3.75933	7801
3.76000	7795
3.76067	7788
3.76133	7782
3.76200	7776
3.76267	7770
3.76333	7764
3.76400	7757
3.76467	7751
3.76533	7745
3.76600	7739
3.76667	7733
3.76733	7727
3.76800	7721
3.76867	7715
3.76933	7710
3.77000	7704
3.77067	7698
3.77133	7692
3.77200	7687
3.77267	7681
3.77333	7675
3.77400	7670
3.77467	7664
3.77533	7659
3.77600	7653
3.77667	7647
3.77733	7642
3.77800	7636
3.77867	7631
3.77933	7626
3.78000	7620
3.78067	7615
3.78133	7609
3.78200	7604
3.78267	7599
3.78333	7593
3.78400	7588
3.78467	7583
3.78533	7578
3.78600	7572
3.78667	7567
3.78733	7562
3.78800	7557
3.78867	7552
3.78933	7546
3.79000	7541
3.79067	7536
3.79133	7531
3.79200	7526
3.79267	7521
3.79333	7516
3.79400	7511
3.79467	7507
3.79533	7502
3.79600	7497
3.79667	7492
3.79733	7488
3.79800	7483
3.79867	7478
3.79933	7474
3.80000	7469
3.80067	7464
3.80133	7460
3.80200	7455
3.80267	7451
3.80333	7447
3.80400	7442
3.80467	7438
3.80533	7434
3.80600	7430
3.80667	7425
3.80733	7421
3.80800	7417
3.80867	7413
3.80933	7409
3.81000	7405
3.81067	7401
3.81133	7398
3.81200	7394
3.81267	7390
3.81333	7386
3.81400	7382
3.81467	7379
3.81533	7375
3.81600	7371
3.81667	7367
3.81733	7364
3.81800	7360
3.81867	7357
3.81933	7353
3.82000	7350
3.82067	7346
3.82133	7343
3.82200	7339
3.82267	7336
3.82333	7332
3.82400	7329
3.82467	7326
3.82533	7322
3.82600	7319
3.82667	7316
3.82733	7312
3.82800	7309
3.82867	7306
3.82933	7303
3.83000	7300
3.83067	7296
3.83133	7293
3.83200	7290
3.83267	7287
3.83333	7284
3.83400	7281
3.83467	7279
3.83533	7276
3.83600	7273
3.83667	7271
3.83733	7268
3.83800	7265
3.83867	7263
3.83933	7261
3.84000	7258
3.84067	7256
3.84133	7254
3.84200	7252
3.84267	7250
3.84333	7247
3.84400	7245
3.84467	7243
3.84533	7241
3.84600	7239
3.84667	7237
3.84733	7235
3.84800	7233
3.84867	7232
3.84933	7230
3.85000	7228
3.85067	7226
3.85133	7224
3.85200	7223
3.85267	7221
3.85333	7219
3.85400	7217
3.85467	7216
3.85533	7214
3.85600	7212
3.85667	7211
3.85733	7209
3.85800	7207
3.85867	7206
3.85933	7204
3.86000	7203
3.86067	7201
3.86133	7200
3.86200	7198
3.86267	7197
3.86333	7195
3.86400	7194
3.86467	7192
3.86533	7191
3.86600	7190
3.86667	7188
3.86733	7187
3.86800	7186
3.86867	7185
3.86933	7183
3.87000	7182
3.87067	7181
3.87133	7180
3.87200	7179
3.87267	7178
3.87333	7177
3.87400	7176
3.87467	7175
3.87533	7174
3.87600	7173
3.87667	7172
3.87733	7171
3.87800	7170
3.87867	7169
3.87933	7168
3.88000	7167
3.88067	7166
3.88133	7165
3.88200	7164
3.88267	7163
3.88333	7163
3.88400	7162
3.88467	7161
3.88533	7160
3.88600	7159
3.88667	7158
3.88733	7158
3.88800	7157
3.88867	7156
3.88933	7155
3.89000	7154
3.89067	7153
3.89133	7152
3.89200	7151
3.89267	7150
3.89333	7149
3.89400	7148
3.89467	7147
3.89533	7146
3.89600	7145
3.89667	7145
3.89733	7144
3.89800	7143
3.89867	7142
3.89933	7141
3.90000	7140
3.90067	7140
3.90133	7139
3.90200	7138
3.90267	7137
3.90333	7136
3.90400	7136
3.90467	7135
3.90533	7134
3.90600	7133
3.90667	7133
3.90733	7132
3.90800	7131
3.90867	7131
3.90933	7130
3.91000	7129
3.91067	7128
3.91133	7128
3.91200	7127
3.91267	7126
3.91333	7125
3.91400	7124
3.91467	7123
3.91533	7123
3.91600	7122
3.91667	7121
3.91733	7120
3.91800	7119
3.91867	7118
3.91933	7117
3.92000	7116
3.92067	7115
3.92133	7114
3.92200	7113
3.92267	7112
3.92333	7111
3.92400	7110
3.92467	7109
3.92533	7108
3.92600	7107
3.92667	7106
3.92733	7105
3.92800	7104
3.92867	7103
3.92933	7102
3.93000	7101
3.93067	7100
3.93133	7098
3.93200	7097
3.93267	7096
3.93333	7095
3.93400	7094
3.93467	7093
3.93533	7092
3.93600	7091
3.93667	7090
3.93733	7089
3.93800	7088
3.93867	7087
3.93933	7086
3.94000	7085
3.94067	7084
3.94133	7083
3.94200	7082
3.94267	7081
3.94333	7080
3.94400	7079
3.94467	7078
3.94533	7077
3.94600	7077
3.94667	7076
3.94733	7075
3.94800	7074
3.94867	7073
3.94933	7072
3.95000	7071
3.95067	7070
3.95133	7069
3.95200	7068
3.95267	7068
3.95333	7067
3.95400	7066
3.95467	7065
3.95533	7064
3.95600	7064
3.95667	7063
3.95733	7062
3.95800	7061
3.95867	7061
3.95933	7060
3.96000	7059
3.96067	7059
3.96133	7058
3.96200	7057
3.96267	7057
3.96333	7056
3.96400	7056
3.96467	7055
3.96533	7055
3.96600	7054
3.96667	7054
3.96733	7053
3.96800	7053
3.96867	7052
3.96933	7052
3.97000	7051
3.97067	7051
3.97133	7051
3.97200	7051
3.97267	7050
3.97333	7050
3.97400	7050
3.97467	7050
3.97533	7050
3.97600	7050
3.97667	7050
3.97733	7050
3.97800	7050
3.97867	7051
3.97933	7051
3.98000	7051
3.98067	7051
3.98133	7052
3.98200	7052
3.98267	7052
3.98333	7053
3.98400	7053
3.98467	7054
3.98533	7054
3.98600	7055
3.98667	7055
3.98733	7056
3.98800	7056
3.98867	7057
3.98933	7057
3.99000	7058
3.99067	7059
3.99133	7059
3.99200	7060
3.99267	7061
3.99333	7062
3.99400	7063
3.99467	7064
3.99533	7065
3.99600	7066
3.99667	7068
3.99733	7069
3.99800	7070
3.99867	7072
3.99933	7073
4.00000	7075
4.00067	7076
4.00133	7078
4.00200	7080
4.00267	7081
4.00333	7083
4.00400	7085
4.00467	7087
4.00533	7089
4.00600	7091
4.00667	7093
4.00733	7096
4.00800	7098
4.00867	7101
4.00933	7103
4.01000	7106
4.01067	7109
4.01133	7112
4.01200	7115
4.01267	7118
4.01333	7122
4.01400	7125
4.01467	7129
4.01533	7133
4.01600	7137
4.01667	7141
4.01733	7145
4.01800	7150
4.01867	7154
4.01933	7159
4.02000	7164
4.02067	7169
4.02133	7174
4.02200	7179
4.02267	7184
4.02333	7190
4.02400	7195
4.02467	7201
4.02533	7207
4.02600	7213
4.02667	7219
4.02733	7226
4.02800	7232
4.02867	7239
4.02933	7246
4.03000	7253
4.03067	7260
4.03133	7268
4.03200	7275
4.03267	7283
4.03333	7291
4.03400	7299
4.03467	7307
4.03533	7315
4.03600	7323
4.03667	7332
4.03733	7341
4.03800	7349
4.03867	7358
4.03933	7368
4.04000	7377
4.04067	7386
4.04133	7396
4.04200	7406
4.04267	7415
4.04333	7425
4.04400	7435
4.04467	7446
4.04533	7456
4.04600	7466
4.04667	7477
4.04733	7487
4.04800	7498
4.04867	7509
4.04933	7520
4.05000	7531
4.05067	7542
4.05133	7554
4.05200	7565
4.05267	7576
4.05333	7588
4.05400	7600
4.05467	7611
4.05533	7623
4.05600	7635
4.05667	7647
4.05733	7659
4.05800	7671
4.05867	7683
4.05933	7695
4.06000	7707
4.06067	7719
4.06133	7731
4.06200	7743
4.06267	7755
4.06333	7767
4.06400	7779
4.06467	7792
4.06533	7804
4.06600	7816
4.06667	7828
4.06733	7840
4.06800	7852
4.06867	7864
4.06933	7876
4.07000	7888
4.07067	7900
4.07133	7912
4.07200	7923
4.07267	7935
4.07333	7946
4.07400	7958
4.07467	7969
4.07533	7980
4.07600	7991
4.07667	8001
4.07733	8012
4.07800	8022
4.07867	8032
4.07933	8042
4.08000	8052
4.08067	8062
4.08133	8071
4.08200	8081
4.08267	8090
4.08333	8099
4.08400	8108
4.08467	8116
4.08533	8125
4.08600	8133
4.08667	8141
4.08733	8149
4.08800	8157
4.08867	8164
4.08933	8172
4.09000	8179
4.09067	8186
4.09133	8192
4.09200	8199
4.09267	8205
4.09333	8211
4.09400	8217
4.09467	8223
4.09533	8228
4.09600	8234
4.09667	8239
4.09733	8244
4.09800	8248
4.09867	8253
4.09933	8257
4.10000	8262
4.10067	8266
4.10133	8270
4.10200	8273
4.10267	8277
4.10333	8280
4.10400	8284
4.10467	8287
4.10533	8290
4.10600	8293
4.10667	8296
4.10733	8299
4.10800	8301
4.10867	8304
4.10933	8306
4.11000	8309
4.11067	8311
4.11133	8313
4.11200	8315
4.11267	8317
4.11333	8319
4.11400	8321
4.11467	8323
4.11533	8326
4.11600	8327
4.11667	8329
4.11733	8331
4.11800	8333
4.11867	8336
4.11933	8338
4.12000	8340
4.12067	8342
4.12133	8344
4.12200	8346
4.12267	8348
4.12333	8350
4.12400	8353
4.12467	8355
4.12533	8357
4.12600	8360
4.12667	8363
4.12733	8365
4.12800	8368
4.12867	8371
4.12933	8374
4.13000	8377
4.13067	8380
4.13133	8384
4.13200	8387
4.13267	8391
4.13333	8395
4.13400	8399
4.13467	8403
4.13533	8408
4.13600	8412
4.13667	8417
4.13733	8422
4.13800	8427
4.13867	8432
4.13933	8437
4.14000	8443
4.14067	8449
4.14133	8455
4.14200	8461
4.14267	8467
4.14333	8473
4.14400	8480
4.14467	8487
4.14533	8494
4.14600	8501
4.14667	8509
4.14733	8516
4.14800	8524
4.14867	8533
4.14933	8541
4.15000	8550
4.15067	8559
4.15133	8568
4.15200	8577
4.15267	8587
4.15333	8597
4.15400	8608
4.15467	8618
4.15533	8629
4.15600	8640
4.15667	8652
4.15733	8664
4.15800	8676
4.15867	8688
4.15933	8701
4.16000	8714
4.16067	8728
4.16133	8741
4.16200	8755
4.16267	8769
4.16333	8784
4.16400	8799
4.16467	8814
4.16533	8829
4.16600	8845
4.16667	8861
4.16733	8877
4.16800	8894
4.16867	8911
4.16933	8928
4.17000	8946
4.17067	8964
4.17133	8982
4.17200	9001
4.17267	9020
4.17333	9040
4.17400	9060
4.17467	9080
4.17533	9101
4.17600	9122
4.17667	9143
4.17733	9165
4.17800	9187
4.17867	9210
4.17933	9233
4.18000	9257
4.18067	9281
4.18133	9305
4.18200	9330
4.18267	9355
4.18333	9381
4.18400	9407
4.18467	9434
4.18533	9462
4.18600	9490
4.18667	9518
4.18733	9547
4.18800	9577
4.18867	9607
4.18933	9638
4.19000	9670
4.19067	9702
4.19133	9736
4.19200	9770
4.19267	9804
4.19333	9840
4.19400	9876
4.19467	9914
4.19533	9952
4.19600	9991
4.19667	10031
4.19733	10071
4.19800	10113
4.19867	10156
4.19933	10200
4.20000	10245
4.20067	10291
4.20133	10338
4.20200	10386
4.20267	10436
4.20333	10486
4.20400	10538
4.20467	10591
4.20533	10646
4.20600	10702
4.20667	10759
4.20733	10818
4.20800	10878
4.20867	10940
4.20933	11003
4.21000	11068
4.21067	11134
4.21133	11202
4.21200	11272
4.21267	11344
4.21333	11418
4.21400	11493
4.21467	11570
4.21533	11650
4.21600	11731
4.21667	11815
4.21733	11901
4.21800	11988
4.21867	12078
4.21933	12171
4.22000	12265
4.22067	12363
4.22133	12462
4.22200	12564
4.22267	12669
4.22333	12776
4.22400	12886
4.22467	12999
4.22533	13115
4.22600	13233
4.22667	13355
4.22733	13479
4.22800	13607
4.22867	13738
4.22933	13873
4.23000	14010
4.23067	14152
4.23133	14296
4.23200	14445
4.23267	14597
4.23333	14753
4.23400	14913
4.23467	15077
4.23533	15245
4.23600	15417
4.23667	15594
4.23733	15774
4.23800	15959
4.23867	16149
4.23933	16343
4.24000	16542
4.24067	16746
4.24133	16955
4.24200	17168
4.24267	17387
4.24333	17610
4.24400	17839
4.24467	18073
4.24533	18312
4.24600	18557
4.24667	18806
4.24733	19061
4.24800	19321
4.24867	19587
4.24933	19857
4.25000	20133
4.25067	20414
4.25133	20700
4.25200	20992
4.25267	21288
4.25333	21589
4.25400	21895
4.25467	22205
4.25533	22520
4.25600	22840
4.25667	23163
4.25733	23491
4.25800	23823
4.25867	24160
4.25933	24500
4.26000	24845
4.26067	25195
4.26133	25548
4.26200	25906
4.26267	26267
4.26333	26633
4.26400	27003
4.26467	27377
4.26533	27754
4.26600	28136
4.26667	28521
4.26733	28909
4.26800	29301
4.26867	29696
4.26933	30095
4.27000	30497
4.27067	30902
4.27133	31309
4.27200	31720
4.27267	32134
4.27333	32550
4.27400	32969
4.27467	33391
4.27533	33815
4.27600	34241
4.27667	34669
4.27733	35099
4.27800	35530
4.27867	35963
4.27933	36398
4.28000	36833
4.28067	37269
4.28133	37706
4.28200	38144
4.28267	38583
4.28333	39021
4.28400	39460
4.28467	39899
4.28533	40338
4.28600	40776
4.28667	41213
4.28733	41650
4.28800	42086
4.28867	42521
4.28933	42955
4.29000	43387
4.29067	43818
4.29133	44247
4.29200	44675
4.29267	45101
4.29333	45525
4.29400	45946
4.29467	46366
4.29533	46783
4.29600	47197
4.29667	47609
4.29733	48017
4.29800	48423
4.29867	48825
4.29933	49225
4.30000	49621
4.30067	50014
4.30133	50404
4.30200	50791
4.30267	51173
4.30333	51553
4.30400	51928
4.30467	52299
4.30533	52667
4.30600	53030
4.30667	53389
4.30733	53743
4.30800	54092
4.30867	54437
4.30933	54778
4.31000	55113
4.31067	55444
4.31133	55771
4.31200	56092
4.31267	56409
4.31333	56721
4.31400	57027
4.31467	57329
4.31533	57626
4.31600	57918
4.31667	58205
4.31733	58486
4.31800	58763
4.31867	59035
4.31933	59302
4.32000	59563
4.32067	59819
4.32133	60070
4.32200	60315
4.32267	60554
4.32333	60788
4.32400	61015
4.32467	61236
4.32533	61451
4.32600	61660
4.32667	61862
4.32733	62057
4.32800	62246
4.32867	62428
4.32933	62603
4.33000	62771
4.33067	62932
4.33133	63085
4.33200	63231
4.33267	63370
4.33333	63502
4.33400	63626
4.33467	63742
4.33533	63851
4.33600	63952
4.33667	64045
4.33733	64130
4.33800	64207
4.33867	64275
4.33933	64335
4.34000	64387
4.34067	64429
4.34133	64464
4.34200	64489
4.34267	64506
4.34333	64515
4.34400	64515
4.34467	64507
4.34533	64490
4.34600	64465
4.34667	64431
4.34733	64389
4.34800	64339
4.34867	64280
4.34933	64213
4.35000	64138
4.35067	64054
4.35133	63963
4.35200	63863
4.35267	63756
4.35333	63640
4.35400	63517
4.35467	63387
4.35533	63249
4.35600	63103
4.35667	62951
4.35733	62791
4.35800	62624
4.35867	62450
4.35933	62269
4.36000	62081
4.36067	61886
4.36133	61685
4.36200	61477
4.36267	61263
4.36333	61043
4.36400	60817
4.36467	60585
4.36533	60348
4.36600	60105
4.36667	59857
4.36733	59605
4.36800	59347
4.36867	59085
4.36933	58819
4.37000	58549
4.37067	58275
4.37133	57997
4.37200	57717
4.37267	57434
4.37333	57148
4.37400	56860
4.37467	56570
4.37533	56278
4.37600	55984
4.37667	55688
4.37733	55390
4.37800	55091
4.37867	54791
4.37933	54489
4.38000	54187
4.38067	53884
4.38133	53580
4.38200	53276
4.38267	52971
4.38333	52667
4.38400	52363
4.38467	52060
4.38533	51757
4.38600	51455
4.38667	51155
4.38733	50855
4.38800	50558
4.38867	50262
4.38933	49968
4.39000	49677
4.39067	49388
4.39133	49102
4.39200	48819
4.39267	48539
4.39333	48263
4.39400	47990
4.39467	47721
4.39533	47456
4.39600	47195
4.39667	46937
4.39733	46685
4.39800	46436
4.39867	46193
4.39933	45954
4.40000	45721
4.40067	45492
4.40133	45269
4.40200	45051
4.40267	44839
4.40333	44632
4.40400	44431
4.40467	44235
4.40533	44045
4.40600	43861
4.40667	43682
4.40733	43509
4.40800	43341
4.40867	43179
4.40933	43023
4.41000	42873
4.41067	42728
4.41133	42589
4.41200	42456
4.41267	42329
4.41333	42207
4.41400	42091
4.41467	41980
4.41533	41875
4.41600	41776
4.41667	41682
4.41733	41593
4.41800	41510
4.41867	41432
4.41933	41360
4.42000	41292
4.42067	41230
4.42133	41172
4.42200	41120
4.42267	41071
4.42333	41028
4.42400	40989
4.42467	40954
4.42533	40922
4.42600	40895
4.42667	40871
4.42733	40851
4.42800	40834
4.42867	40820
4.42933	40809
4.43000	40801
4.43067	40797
4.43133	40795
4.43200	40796
4.43267	40800
4.43333	40807
4.43400	40816
4.43467	40827
4.43533	40841
4.43600	40857
4.43667	40875
4.43733	40895
4.43800	40916
4.43867	40939
4.43933	40962
4.44000	40987
4.44067	41013
4.44133	41039
4.44200	41066
4.44267	41094
4.44333	41121
4.44400	41148
4.44467	41175
4.44533	41202
4.44600	41229
4.44667	41255
4.44733	41280
4.44800	41305
4.44867	41328
4.44933	41351
4.45000	41372
4.45067	41392
4.45133	41410
4.45200	41427
4.45267	41443
4.45333	41456
4.45400	41468
4.45467	41477
4.45533	41484
4.45600	41489
4.45667	41492
4.45733	41492
4.45800	41489
4.45867	41484
4.45933	41475
4.46000	41464
4.46067	41449
4.46133	41430
4.46200	41409
4.46267	41383
4.46333	41354
4.46400	41321
4.46467	41285
4.46533	41244
4.46600	41200
4.46667	41152
4.46733	41100
4.46800	41044
4.46867	40983
4.46933	40919
4.47000	40851
4.47067	40779
4.47133	40702
4.47200	40622
4.47267	40537
4.47333	40448
4.47400	40355
4.47467	40258
4.47533	40157
4.47600	40052
4.47667	39943
4.47733	39830
4.47800	39712
4.47867	39592
4.47933	39467
4.48000	39339
4.48067	39207
4.48133	39071
4.48200	38932
4.48267	38790
4.48333	38644
4.48400	38495
4.48467	38343
4.48533	38187
4.48600	38029
4.48667	37867
4.48733	37703
4.48800	37535
4.48867	37365
4.48933	37192
4.49000	37017
4.49067	36838
4.49133	36657
4.49200	36474
4.49267	36289
4.49333	36101
4.49400	35911
4.49467	35720
4.49533	35526
4.49600	35332
4.49667	35135
4.49733	34938
4.49800	34739
4.49867	34540
4.49933	34340
4.50000	34139
4.50067	33938
4.50133	33736
4.50200	33535
4.50267	33333
4.50333	33132
4.50400	32931
4.50467	32730
4.50533	32530
4.50600	32330
4.50667	32132
4.50733	31935
4.50800	31739
4.50867	31545
4.50933	31352
4.51000	31161
4.51067	30973
4.51133	30786
4.51200	30601
4.51267	30419
4.51333	30239
4.51400	30062
4.51467	29888
4.51533	29717
4.51600	29550
4.51667	29386
4.51733	29225
4.51800	29069
4.51867	28916
4.51933	28768
4.52000	28624
4.52067	28485
4.52133	28350
4.52200	28221
4.52267	28096
4.52333	27977
4.52400	27863
4.52467	27755
4.52533	27653
4.52600	27557
4.52667	27467
4.52733	27384
4.52800	27307
4.52867	27237
4.52933	27174
4.53000	27118
4.53067	27069
4.53133	27028
4.53200	26994
4.53267	26968
4.53333	26951
4.53400	26941
4.53467	26940
4.53533	26947
4.53600	26963
4.53667	26988
4.53733	27022
4.53800	27065
4.53867	27118
4.53933	27181
4.54000	27253
4.54067	27335
4.54133	27427
4.54200	27530
4.54267	27643
4.54333	27767
4.54400	27901
4.54467	28046
4.54533	28202
4.54600	28369
4.54667	28546
4.54733	28735
4.54800	28936
4.54867	29147
4.54933	29370
4.55000	29604
4.55067	29850
4.55133	30107
4.55200	30376
4.55267	30657
4.55333	30949
4.55400	31254
4.55467	31570
4.55533	31898
4.55600	32238
4.55667	32590
4.55733	32955
4.55800	33332
4.55867	33721
4.55933	34123
4.56000	34536
4.56067	34962
4.56133	35401
4.56200	35852
4.56267	36315
4.56333	36790
4.56400	37278
4.56467	37778
4.56533	38289
4.56600	38813
4.56667	39349
4.56733	39896
4.56800	40455
4.56867	41025
4.56933	41605
4.57000	42197
4.57067	42799
4.57133	43411
4.57200	44034
4.57267	44666
4.57333	45309
4.57400	45961
4.57467	46622
4.57533	47293
4.57600	47973
4.57667	48662
4.57733	49359
4.57800	50065
4.57867	50779
4.57933	51501
4.58000	52231
4.58067	52968
4.58133	53713
4.58200	54464
4.58267	55223
4.58333	55987
4.58400	56758
4.58467	57534
4.58533	58315
4.58600	59101
4.58667	59892
4.58733	60687
4.58800	61486
4.58867	62288
4.58933	63093
4.59000	63900
4.59067	64710
4.59133	65521
4.59200	66334
4.59267	67147
4.59333	67961
4.59400	68775
4.59467	69589
4.59533	70403
4.59600	71216
4.59667	72027
4.59733	72837
4.59800	73643
4.59867	74447
4.59933	75248
4.60000	76044
4.60067	76836
4.60133	77623
4.60200	78405
4.60267	79181
4.60333	79950
4.60400	80712
4.60467	81466
4.60533	82212
4.60600	82949
4.60667	83678
4.60733	84397
4.60800	85106
4.60867	85805
4.60933	86493
4.61000	87170
4.61067	87835
4.61133	88489
4.61200	89130
4.61267	89758
4.61333	90373
4.61400	90973
4.61467	91560
4.61533	92132
4.61600	92689
4.61667	93231
4.61733	93758
4.61800	94269
4.61867	94764
4.61933	95244
4.62000	95707
4.62067	96154
4.62133	96584
4.62200	96998
4.62267	97394
4.62333	97774
4.62400	98136
4.62467	98482
4.62533	98810
4.62600	99120
4.62667	99413
4.62733	99689
4.62800	99947
4.62867	100187
4.62933	100410
4.63000	100615
4.63067	100802
4.63133	100971
4.63200	101122
4.63267	101256
4.63333	101371
4.63400	101468
4.63467	101546
4.63533	101607
4.63600	101650
4.63667	101675
4.63733	101682
4.63800	101672
4.63867	101645
4.63933	101601
4.64000	101541
4.64067	101464
4.64133	101371
4.64200	101262
4.64267	101137
4.64333	100996
4.64400	100840
4.64467	100669
4.64533	100483
4.64600	100283
4.64667	100068
4.64733	99839
4.64800	99597
4.64867	99341
4.64933	99072
4.65000	98790
4.65067	98495
4.65133	98189
4.65200	97870
4.65267	97540
4.65333	97200
4.65400	96848
4.65467	96486
4.65533	96114
4.65600	95732
4.65667	95341
4.65733	94940
4.65800	94531
4.65867	94113
4.65933	93688
4.66000	93256
4.66067	92817
4.66133	92371
4.66200	91920
4.66267	91463
4.66333	91001
4.66400	90535
4.66467	90064
4.66533	89589
4.66600	89110
4.66667	88628
4.66733	88142
4.66800	87653
4.66867	87161
4.66933	86667
4.67000	86170
4.67067	85671
4.67133	85170
4.67200	84668
4.67267	84164
4.67333	83660
4.67400	83155
4.67467	82650
4.67533	82144
4.67600	81640
4.67667	81135
4.67733	80632
4.67800	80129
4.67867	79628
4.67933	79129
4.68000	78631
4.68067	78136
4.68133	77642
4.68200	77152
4.68267	76664
4.68333	76178
4.68400	75695
4.68467	75216
4.68533	74739
4.68600	74266
4.68667	73796
4.68733	73330
4.68800	72867
4.68867	72407
4.68933	71952
4.69000	71500
4.69067	71051
4.69133	70607
4.69200	70167
4.69267	69730
4.69333	69297
4.69400	68869
4.69467	68444
4.69533	68024
4.69600	67608
4.69667	67196
4.69733	66789
4.69800	66386
4.69867	65988
4.69933	65594
4.70000	65205
4.70067	64821
4.70133	64441
4.70200	64066
4.70267	63695
4.70333	63329
4.70400	62968
4.70467	62612
4.70533	62260
4.70600	61912
4.70667	61570
4.70733	61231
4.70800	60897
4.70867	60567
4.70933	60242
4.71000	59921
4.71067	59604
4.71133	59292
4.71200	58984
4.71267	58680
4.71333	58380
4.71400	58085
4.71467	57795
4.71533	57509
4.71600	57227
4.71667	56949
4.71733	56676
4.71800	56407
4.71867	56143
4.71933	55882
4.72000	55626
4.72067	55373
4.72133	55125
4.72200	54880
4.72267	54639
4.72333	54402
4.72400	54168
4.72467	53938
4.72533	53711
4.72600	53488
4.72667	53268
4.72733	53051
4.72800	52838
4.72867	52628
4.72933	52422
4.73000	52218
4.73067	52017
4.73133	51820
4.73200	51626
4.73267	51434
4.73333	51246
4.73400	51061
4.73467	50878
4.73533	50699
4.73600	50522
4.73667	50349
4.73733	50178
4.73800	50009
4.73867	49843
4.73933	49680
4.74000	49519
4.74067	49360
4.74133	49204
4.74200	49050
4.74267	48898
4.74333	48748
4.74400	48600
4.74467	48454
4.74533	48310
4.74600	48167
4.74667	48027
4.74733	47888
4.74800	47750
4.74867	47614
4.74933	47480
4.75000	47347
4.75067	47215
4.75133	47085
4.75200	46956
4.75267	46828
4.75333	46702
4.75400	46578
4.75467	46455
4.75533	46333
4.75600	46212
4.75667	46093
4.75733	45974
4.75800	45857
4.75867	45742
4.75933	45627
4.76000	45514
4.76067	45402
4.76133	45290
4.76200	45180
4.76267	45071
4.76333	44963
4.76400	44856
4.76467	44749
4.76533	44644
4.76600	44540
4.76667	44436
4.76733	44333
4.76800	44232
4.76867	44131
4.76933	44031
4.77000	43932
4.77067	43834
4.77133	43737
4.77200	43641
4.77267	43546
4.77333	43451
4.77400	43358
4.77467	43265
4.77533	43173
4.77600	43082
4.77667	42991
4.77733	42902
4.77800	42813
4.77867	42724
4.77933	42637
4.78000	42550
4.78067	42463
4.78133	42377
4.78200	42292
4.78267	42207
4.78333	42123
4.78400	42040
4.78467	41957
4.78533	41874
4.78600	41791
4.78667	41709
4.78733	41628
4.78800	41546
4.78867	41465
4.78933	41384
4.79000	41303
4.79067	41222
4.79133	41142
4.79200	41062
4.79267	40983
4.79333	40904
4.79400	40825
4.79467	40747
4.79533	40670
4.79600	40593
4.79667	40517
4.79733	40441
4.79800	40367
4.79867	40292
4.79933	40218
4.80000	40145
4.80067	40073
4.80133	40000
4.80200	39929
4.80267	39857
4.80333	39786
4.80400	39716
4.80467	39645
4.80533	39576
4.80600	39506
4.80667	39437
4.80733	39369
4.80800	39301
4.80867	39234
4.80933	39167
4.81000	39100
4.81067	39034
4.81133	38969
4.81200	38904
4.81267	38840
4.81333	38776
4.81400	38712
4.81467	38649
4.81533	38587
4.81600	38525
4.81667	38464
4.81733	38403
4.81800	38343
4.81867	38283
4.81933	38224
4.82000	38166
4.82067	38107
4.82133	38050
4.82200	37992
4.82267	37935
4.82333	37879
4.82400	37823
4.82467	37767
4.82533	37712
4.82600	37657
4.82667	37602
4.82733	37548
4.82800	37495
4.82867	37441
4.82933	37388
4.83000	37336
4.83067	37284
4.83133	37231
4.83200	37180
4.83267	37128
4.83333	37076
4.83400	37025
4.83467	36974
4.83533	36923
4.83600	36872
4.83667	36822
4.83733	36771
4.83800	36721
4.83867	36671
4.83933	36621
4.84000	36572
4.84067	36523
4.84133	36474
4.84200	36425
4.84267	36377
4.84333	36329
4.84400	36281
4.84467	36234
4.84533	36187
4.84600	36141
4.84667	36095
4.84733	36050
4.84800	36004
4.84867	35959
4.84933	35915
4.85000	35870
4.85067	35826
4.85133	35782
4.85200	35737
4.85267	35693
4.85333	35649
4.85400	35605
4.85467	35562
4.85533	35518
4.85600	35474
4.85667	35431
4.85733	35387
4.85800	35344
4.85867	35301
4.85933	35257
4.86000	35214
4.86067	35171
4.86133	35128
4.86200	35085
4.86267	35041
4.86333	34998
4.86400	34955
4.86467	34911
4.86533	34868
4.86600	34824
4.86667	34781
4.86733	34737
4.86800	34693
4.86867	34648
4.86933	34604
4.87000	34560
4.87067	34515
4.87133	34471
4.87200	34427
4.87267	34383
4.87333	34338
4.87400	34294
4.87467	34251
4.87533	34207
4.87600	34163
4.87667	34119
4.87733	34076
4.87800	34032
4.87867	33989
4.87933	33946
4.88000	33903
4.88067	33859
4.88133	33816
4.88200	33773
4.88267	33730
4.88333	33687
4.88400	33644
4.88467	33601
4.88533	33558
4.88600	33515
4.88667	33473
4.88733	33430
4.88800	33387
4.88867	33345
4.88933	33303
4.89000	33261
4.89067	33219
4.89133	33177
4.89200	33135
4.89267	33093
4.89333	33051
4.89400	33009
4.89467	32968
4.89533	32926
4.89600	32884
4.89667	32843
4.89733	32801
4.89800	32760
4.89867	32719
4.89933	32678
4.90000	32637
4.90067	32596
4.90133	32555
4.90200	32514
4.90267	32474
4.90333	32433
4.90400	32393
4.90467	32354
4.90533	32315
4.90600	32276
4.90667	32237
4.90733	32199
4.90800	32161
4.90867	32124
4.90933	32086
4.91000	32049
4.91067	32013
4.91133	31976
4.91200	31940
4.91267	31905
4.91333	31869
4.91400	31834
4.91467	31800
4.91533	31765
4.91600	31731
4.91667	31697
4.91733	31663
4.91800	31630
4.91867	31596
4.91933	31563
4.92000	31531
4.92067	31498
4.92133	31466
4.92200	31435
4.92267	31404
4.92333	31373
4.92400	31342
4.92467	31312
4.92533	31282
4.92600	31253
4.92667	31224
4.92733	31194
4.92800	31165
4.92867	31137
4.92933	31108
4.93000	31079
4.93067	31050
4.93133	31022
4.93200	30993
4.93267	30965
4.93333	30937
4.93400	30908
4.93467	30880
4.93533	30852
4.93600	30824
4.93667	30796
4.93733	30768
4.93800	30740
4.93867	30712
4.93933	30684
4.94000	30656
4.94067	30628
4.94133	30599
4.94200	30571
4.94267	30542
4.94333	30513
4.94400	30484
4.94467	30455
4.94533	30426
4.94600	30397
4.94667	30367
4.94733	30338
4.94800	30308
4.94867	30278
4.94933	30247
4.95000	30216
4.95067	30185
4.95133	30154
4.95200	30123
4.95267	30091
4.95333	30059
4.95400	30026
4.95467	29994
4.95533	29961
4.95600	29928
4.95667	29894
4.95733	29861
4.95800	29827
4.95867	29793
4.95933	29759
4.96000	29725
4.96067	29691
4.96133	29657
4.96200	29622
4.96267	29588
4.96333	29554
4.96400	29520
4.96467	29486
4.96533	29452
4.96600	29418
4.96667	29384
4.96733	29350
4.96800	29316
4.96867	29283
4.96933	29250
4.97000	29216
4.97067	29183
4.97133	29150
4.97200	29117
4.97267	29084
4.97333	29051
4.97400	29018
4.97467	28985
4.97533	28953
4.97600	28920
4.97667	28888
4.97733	28856
4.97800	28824
4.97867	28792
4.97933	28761
4.98000	28729
4.98067	28698
4.98133	28667
4.98200	28636
4.98267	28605
4.98333	28574
4.98400	28543
4.98467	28512
4.98533	28481
4.98600	28450
4.98667	28420
4.98733	28389
4.98800	28358
4.98867	28328
4.98933	28298
4.99000	28268
4.99067	28238
4.99133	28208
4.99200	28179
4.99267	28149
4.99333	28120
4.99400	28092
4.99467	28063
4.99533	28035
4.99600	28008
4.99667	27980
4.99733	27953
4.99800	27926
4.99867	27899
4.99933	27873
5.00000	27847
5.00067	27820
5.00133	27794
5.00200	27768
5.00267	27742
5.00333	27717
5.00400	27691
5.00467	27665
5.00533	27639
5.00600	27614
5.00667	27588
5.00733	27563
5.00800	27538
5.00867	27513
5.00933	27488
5.01000	27464
5.01067	27439
5.01133	27414
5.01200	27390
5.01267	27366
5.01333	27342
5.01400	27318
5.01467	27294
5.01533	27270
5.01600	27247
5.01667	27223
5.01733	27200
5.01800	27177
5.01867	27155
5.01933	27132
5.02000	27110
5.02067	27088
5.02133	27066
5.02200	27044
5.02267	27023
5.02333	27001
5.02400	26979
5.02467	26958
5.02533	26936
5.02600	26914
5.02667	26892
5.02733	26870
5.02800	26848
5.02867	26826
5.02933	26803
5.03000	26781
5.03067	26758
5.03133	26736
5.03200	26713
5.03267	26691
5.03333	26668
5.03400	26646
5.03467	26623
5.03533	26600
5.03600	26577
5.03667	26554
5.03733	26531
5.03800	26508
5.03867	26485
5.03933	26462
5.04000	26439
5.04067	26416
5.04133	26394
5.04200	26371
5.04267	26348
5.04333	26325
5.04400	26302
5.04467	26280
5.04533	26257
5.04600	26234
5.04667	26212
5.04733	26189
5.04800	26167
5.04867	26144
5.04933	26122
5.05000	26099
5.05067	26077
5.05133	26054
5.05200	26031
5.05267	26008
5.05333	25986
5.05400	25963
5.05467	25940
5.05533	25917
5.05600	25894
5.05667	25871
5.05733	25848
5.05800	25825
5.05867	25802
5.05933	25779
5.06000	25757
5.06067	25734
5.06133	25712
5.06200	25690
5.06267	25668
5.06333	25646
5.06400	25624
5.06467	25603
5.06533	25581
5.06600	25560
5.06667	25538
5.06733	25517
5.06800	25496
5.06867	25474
5.06933	25453
5.07000	25432
5.07067	25410
5.07133	25389
5.07200	25367
5.07267	25345
5.07333	25324
5.07400	25302
5.07467	25280
5.07533	25258
5.07600	25236
5.07667	25214
5.07733	25192
5.07800	25170
5.07867	25147
5.07933	25125
5.08000	25103
5.08067	25081
5.08133	25059
5.08200	25038
5.08267	25016
5.08333	24994
5.08400	24973
5.08467	24951
5.08533	24930
5.08600	24909
5.08667	24888
5.08733	24867
5.08800	24847
5.08867	24826
5.08933	24805
5.09000	24785
5.09067	24764
5.09133	24743
5.09200	24723
5.09267	24702
5.09333	24681
5.09400	24660
5.09467	24640
5.09533	24619
5.09600	24598
5.09667	24578
5.09733	24557
5.09800	24536
5.09867	24516
5.09933	24496
5.10000	24475
5.10067	24455
5.10133	24435
5.10200	24415
5.10267	24395
5.10333	24375
5.10400	24356
5.10467	24336
5.10533	24316
5.10600	24296
5.10667	24277
5.10733	24257
5.10800	24238
5.10867	24219
5.10933	24199
5.11000	24180
5.11067	24161
5.11133	24143
5.11200	24124
5.11267	24105
5.11333	24087
5.11400	24069
5.11467	24050
5.11533	24032
5.11600	24014
5.11667	23996
5.11733	23978
5.11800	23960
5.11867	23942
5.11933	23924
5.12000	23907
5.12067	23889
5.12133	23872
5.12200	23855
5.12267	23838
5.12333	23821
5.12400	23805
5.12467	23788
5.12533	23772
5.12600	23756
5.12667	23740
5.12733	23723
5.12800	23707
5.12867	23692
5.12933	23676
5.13000	23660
5.13067	23645
5.13133	23630
5.13200	23615
5.13267	23600
5.13333	23585
5.13400	23570
5.13467	23556
5.13533	23541
5.13600	23527
5.13667	23513
5.13733	23499
5.13800	23486
5.13867	23472
5.13933	23459
5.14000	23446
5.14067	23433
5.14133	23421
5.14200	23408
5.14267	23396
5.14333	23384
5.14400	23371
5.14467	23359
5.14533	23348
5.14600	23336
5.14667	23324
5.14733	23313
5.14800	23302
5.14867	23291
5.14933	23280
5.15000	23269
5.15067	23258
5.15133	23248
5.15200	23237
5.15267	23227
5.15333	23217
5.15400	23206
5.15467	23196
5.15533	23186
5.15600	23176
5.15667	23167
5.15733	23157
5.15800	23148
5.15867	23138
5.15933	23129
5.16000	23120
5.16067	23111
5.16133	23102
5.16200	23094
5.16267	23085
5.16333	23076
5.16400	23068
5.16467	23060
5.16533	23051
5.16600	23043
5.16667	23035
5.16733	23027
5.16800	23019
5.16867	23011
5.16933	23003
5.17000	22995
5.17067	22988
5.17133	22980
5.17200	22972
5.17267	22965
5.17333	22958
5.17400	22951
5.17467	22945
5.17533	22939
5.17600	22933
5.17667	22927
5.17733	22922
5.17800	22917
5.17867	22912
5.17933	22907
5.18000	22903
5.18067	22899
5.18133	22895
5.18200	22891
5.18267	22888
5.18333	22884
5.18400	22881
5.18467	22878
5.18533	22875
5.18600	22873
5.18667	22870
5.18733	22868
5.18800	22866
5.18867	22864
5.18933	22862
5.19000	22861
5.19067	22859
5.19133	22858
5.19200	22856
5.19267	22855
5.19333	22854
5.19400	22853
5.19467	22852
5.19533	22851
5.19600	22850
5.19667	22849
5.19733	22848
5.19800	22848
5.19867	22847
5.19933	22847
5.20000	22847
5.20067	22847
5.20133	22846
5.20200	22846
5.20267	22846
5.20333	22846
5.20400	22847
5.20467	22847
5.20533	22847
5.20600	22847
5.20667	22847
5.20733	22847
5.20800	22847
5.20867	22847
5.20933	22847
5.21000	22847
5.21067	22847
5.21133	22847
5.21200	22847
5.21267	22847
5.21333	22847
5.21400	22847
5.21467	22847
5.21533	22846
5.21600	22846
5.21667	22846
5.21733	22845
5.21800	22844
5.21867	22844
5.21933	22843
5.22000	22842
5.22067	22840
5.22133	22839
5.22200	22838
5.22267	22836
5.22333	22834
5.22400	22832
5.22467	22830
5.22533	22828
5.22600	22825
5.22667	22822
5.22733	22818
5.22800	22814
5.22867	22810
5.22933	22806
5.23000	22801
5.23067	22795
5.23133	22789
5.23200	22782
5.23267	22775
5.23333	22767
5.23400	22759
5.23467	22750
5.23533	22741
5.23600	22731
5.23667	22721
5.23733	22710
5.23800	22700
5.23867	22688
5.23933	22677
5.24000	22665
5.24067	22652
5.24133	22639
5.24200	22627
5.24267	22613
5.24333	22600
5.24400	22586
5.24467	22572
5.24533	22557
5.24600	22543
5.24667	22528
5.24733	22513
5.24800	22497
5.24867	22481
5.24933	22466
5.25000	22449
5.25067	22433
5.25133	22416
5.25200	22399
5.25267	22382
5.25333	22365
5.25400	22347
5.25467	22330
5.25533	22311
5.25600	22293
5.25667	22274
5.25733	22255
5.25800	22236
5.25867	22217
5.25933	22197
5.26000	22177
5.26067	22157
5.26133	22136
5.26200	22116
5.26267	22095
5.26333	22074
5.26400	22053
5.26467	22032
5.26533	22010
5.26600	21989
5.26667	21967
5.26733	21946
5.26800	21924
5.26867	21903
5.26933	21881
5.27000	21859
5.27067	21837
5.27133	21816
5.27200	21794
5.27267	21772
5.27333	21750
5.27400	21728
5.27467	21706
5.27533	21683
5.27600	21661
5.27667	21639
5.27733	21617
5.27800	21594
5.27867	21572
5.27933	21550
5.28000	21527
5.28067	21505
5.28133	21483
5.28200	21461
5.28267	21439
5.28333	21417
5.28400	21395
5.28467	21374
5.28533	21352
5.28600	21331
5.28667	21309
5.28733	21288
5.28800	21267
5.28867	21245
5.28933	21224
5.29000	21203
5.29067	21182
5.29133	21161
5.29200	21140
5.29267	21120
5.29333	21099
5.29400	21078
5.29467	21058
5.29533	21038
5.29600	21018
5.29667	20997
5.29733	20978
5.29800	20958
5.29867	20938
5.29933	20918
5.30000	20899
5.30067	20879
5.30133	20860
5.30200	20841
5.30267	20822
5.30333	20803
5.30400	20784
5.30467	20765
5.30533	20747
5.30600	20728
5.30667	20709
5.30733	20691
5.30800	20672
5.30867	20653
5.30933	20635
5.31000	20616
5.31067	20598
5.31133	20579
5.31200	20560
5.31267	20542
5.31333	20523
5.31400	20505
5.31467	20486
5.31533	20468
5.31600	20449
5.31667	20431
5.31733	20413
5.31800	20395
5.31867	20377
5.31933	20359
5.32000	20341
5.32067	20323
5.32133	20305
5.32200	20288
5.32267	20270
5.32333	20253
5.32400	20235
5.32467	20218
5.32533	20201
5.32600	20184
5.32667	20167
5.32733	20150
5.32800	20134
5.32867	20117
5.32933	20100
5.33000	20084
5.33067	20067
5.33133	20051
5.33200	20034
5.33267	20017
5.33333	20001
5.33400	19984
5.33467	19967
5.33533	19950
5.33600	19933
5.33667	19916
5.33733	19898
5.33800	19881
5.33867	19864
5.33933	19847
5.34000	19830
5.34067	19813
5.34133	19796
5.34200	19778
5.34267	19761
5.34333	19744
5.34400	19727
5.34467	19710
5.34533	19693
5.34600	19676
5.34667	19659
5.34733	19642
5.34800	19625
5.34867	19608
5.34933	19590
5.35000	19573
5.35067	19556
5.35133	19538
5.35200	19521
5.35267	19503
5.35333	19486
5.35400	19468
5.35467	19451
5.35533	19433
5.35600	19415
5.35667	19397
5.35733	19379
5.35800	19361
5.35867	19342
5.35933	19324
5.36000	19306
5.36067	19287
5.36133	19269
5.36200	19250
5.36267	19231
5.36333	19212
5.36400	19193
5.36467	19174
5.36533	19155
5.36600	19136
5.36667	19116
5.36733	19097
5.36800	19078
5.36867	19058
5.36933	19039
5.37000	19020
5.37067	19000
5.37133	18981
5.37200	18962
5.37267	18943
5.37333	18923
5.37400	18904
5.37467	18885
5.37533	18865
5.37600	18846
5.37667	18826
5.37733	18807
5.37800	18788
5.37867	18769
5.37933	18749
5.38000	18730
5.38067	18711
5.38133	18692
5.38200	18673
5.38267	18654
5.38333	18635
5.38400	18616
5.38467	18597
5.38533	18579
5.38600	18560
5.38667	18541
5.38733	18522
5.38800	18504
5.38867	18485
5.38933	18467
5.39000	18449
5.39067	18430
5.39133	18412
5.39200	18395
5.39267	18377
5.39333	18359
5.39400	18342
5.39467	18324
5.39533	18307
5.39600	18290
5.39667	18273
5.39733	18256
5.39800	18239
5.39867	18222
5.39933	18205
5.40000	18189
5.40067	18172
5.40133	18156
5.40200	18140
5.40267	18123
5.40333	18107
5.40400	18091
5.40467	18075
5.40533	18059
5.40600	18043
5.40667	18027
5.40733	18011
5.40800	17995
5.40867	17979
5.40933	17963
5.41000	17947
5.41067	17931
5.41133	17916
5.41200	17900
5.41267	17884
5.41333	17868
5.41400	17853
5.41467	17837
5.41533	17822
5.41600	17806
5.41667	17791
5.41733	17776
5.41800	17760
5.41867	17745
5.41933	17730
5.42000	17715
5.42067	17700
5.42133	17685
5.42200	17670
5.42267	17655
5.42333	17640
5.42400	17625
5.42467	17610
5.42533	17595
5.42600	17580
5.42667	17565
5.42733	17550
5.42800	17536
5.42867	17521
5.42933	17506
5.43000	17491
5.43067	17476
5.43133	17462
5.43200	17447
5.43267	17432
5.43333	17417
5.43400	17402
5.43467	17387
5.43533	17372
5.43600	17357
5.43667	17342
5.43733	17327
5.43800	17312
5.43867	17297
5.43933	17281
5.44000	17266
5.44067	17251
5.44133	17236
5.44200	17220
5.44267	17205
5.44333	17190
5.44400	17174
5.44467	17159
5.44533	17144
5.44600	17128
5.44667	17113
5.44733	17098
5.44800	17083
5.44867	17068
5.44933	17053
5.45000	17038
5.45067	17023
5.45133	17008
5.45200	16994
5.45267	16979
5.45333	16965
5.45400	16950
5.45467	16936
5.45533	16922
5.45600	16908
5.45667	16894
5.45733	16880
5.45800	16866
5.45867	16852
5.45933	16838
5.46000	16824
5.46067	16810
5.46133	16797
5.46200	16783
5.46267	16769
5.46333	16756
5.46400	16742
5.46467	16728
5.46533	16715
5.46600	16702
5.46667	16688
5.46733	16675
5.46800	16662
5.46867	16648
5.46933	16635
5.47000	16622
5.47067	16609
5.47133	16596
5.47200	16583
5.47267	16569
5.47333	16556
5.47400	16543
5.47467	16530
5.47533	16517
5.47600	16504
5.47667	16491
5.47733	16478
5.47800	16465
5.47867	16452
5.47933	16439
5.48000	16426
5.48067	16413
5.48133	16400
5.48200	16387
5.48267	16375
5.48333	16362
5.48400	16349
5.48467	16336
5.48533	16324
5.48600	16311
5.48667	16299
5.48733	16286
5.48800	16273
5.48867	16261
5.48933	16249
5.49000	16236
5.49067	16224
5.49133	16211
5.49200	16199
5.49267	16186
5.49333	16174
5.49400	16161
5.49467	16149
5.49533	16137
5.49600	16125
5.49667	16112
5.49733	16100
5.49800	16088
5.49867	16076
5.49933	16064
5.50000	16052
5.50067	16040
5.50133	16028
5.50200	16017
5.50267	16005
5.50333	15993
5.50400	15982
5.50467	15970
5.50533	15959
5.50600	15947
5.50667	15936
5.50733	15925
5.50800	15914
5.50867	15902
5.50933	15891
5.51000	15880
5.51067	15869
5.51133	15858
5.51200	15847
5.51267	15835
5.51333	15824
5.51400	15813
5.51467	15802
5.51533	15791
5.51600	15780
5.51667	15768
5.51733	15757
5.51800	15746
5.51867	15735
5.51933	15725
5.52000	15714
5.52067	15703
5.52133	15692
5.52200	15682
5.52267	15671
5.52333	15661
5.52400	15651
5.52467	15640
5.52533	15630
5.52600	15620
5.52667	15611
5.52733	15601
5.52800	15591
5.52867	15582
5.52933	15572
5.53000	15562
5.53067	15553
5.53133	15543
5.53200	15534
5.53267	15524
5.53333	15515
5.53400	15505
5.53467	15495
5.53533	15485
5.53600	15476
5.53667	15466
5.53733	15456
5.53800	15446
5.53867	15436
5.53933	15426
5.54000	15416
5.54067	15406
5.54133	15396
5.54200	15386
5.54267	15376
5.54333	15365
5.54400	15355
5.54467	15345
5.54533	15335
5.54600	15324
5.54667	15314
5.54733	15304
5.54800	15294
5.54867	15284
5.54933	15274
5.55000	15264
5.55067	15254
5.55133	15244
5.55200	15234
5.55267	15224
5.55333	15214
5.55400	15205
5.55467	15195
5.55533	15186
5.55600	15176
5.55667	15166
5.55733	15157
5.55800	15148
5.55867	15138
5.55933	15129
5.56000	15120
5.56067	15110
5.56133	15101
5.56200	15092
5.56267	15082
5.56333	15073
5.56400	15064
5.56467	15055
5.56533	15046
5.56600	15037
5.56667	15029
5.56733	15020
5.56800	15011
5.56867	15003
5.56933	14994
5.57000	14986
5.57067	14977
5.57133	14969
5.57200	14961
5.57267	14953
5.57333	14945
5.57400	14936
5.57467	14928
5.57533	14920
5.57600	14912
5.57667	14904
5.57733	14896
5.57800	14889
5.57867	14881
5.57933	14873
5.58000	14865
5.58067	14858
5.58133	14850
5.58200	14842
5.58267	14834
5.58333	14826
5.58400	14819
5.58467	14811
5.58533	14803
5.58600	14795
5.58667	14787
5.58733	14779
5.58800	14771
5.58867	14762
5.58933	14754
5.59000	14746
5.59067	14738
5.59133	14730
5.59200	14722
5.59267	14714
5.59333	14707
5.59400	14699
5.59467	14691
5.59533	14683
5.59600	14676
5.59667	14668
5.59733	14661
5.59800	14654
5.59867	14646
5.59933	14639
5.60000	14632
5.60067	14625
5.60133	14618
5.60200	14611
5.60267	14604
5.60333	14597
5.60400	14590
5.60467	14583
5.60533	14576
5.60600	14569
5.60667	14562
5.60733	14555
5.60800	14547
5.60867	14540
5.60933	14532
5.61000	14525
5.61067	14517
5.61133	14509
5.61200	14501
5.61267	14493
5.61333	14485
5.61400	14477
5.61467	14469
5.61533	14460
5.61600	14452
5.61667	14444
5.61733	14435
5.61800	14427
5.61867	14418
5.61933	14410
5.62000	14402
5.62067	14393
5.62133	14385
5.62200	14377
5.62267	14368
5.62333	14360
5.62400	14352
5.62467	14344
5.62533	14336
5.62600	14328
5.62667	14320
5.62733	14312
5.62800	14304
5.62867	14297
5.62933	14289
5.63000	14281
5.63067	14273
5.63133	14265
5.63200	14257
5.63267	14249
5.63333	14241
5.63400	14233
5.63467	14225
5.63533	14216
5.63600	14208
5.63667	14200
5.63733	14192
5.63800	14184
5.63867	14176
5.63933	14168
5.64000	14160
5.64067	14152
5.64133	14144
5.64200	14136
5.64267	14128
5.64333	14120
5.64400	14112
5.64467	14104
5.64533	14096
5.64600	14088
5.64667	14080
5.64733	14072
5.64800	14064
5.64867	14056
5.64933	14048
5.65000	14040
5.65067	14032
5.65133	14025
5.65200	14017
5.65267	14009
5.65333	14001
5.65400	13994
5.65467	13986
5.65533	13978
5.65600	13970
5.65667	13963
5.65733	13955
5.65800	13948
5.65867	13940
5.65933	13933
5.66000	13926
5.66067	13918
5.66133	13911
5.66200	13904
5.66267	13897
5.66333	13890
5.66400	13883
5.66467	13876
5.66533	13869
5.66600	13862
5.66667	13855
5.66733	13848
5.66800	13842
5.66867	13835
5.66933	13828
5.67000	13822
5.67067	13815
5.67133	13809
5.67200	13802
5.67267	13796
5.67333	13790
5.67400	13784
5.67467	13778
5.67533	13771
5.67600	13765
5.67667	13759
5.67733	13753
5.67800	13747
5.67867	13741
5.67933	13735
5.68000	13729
5.68067	13723
5.68133	13716
5.68200	13710
5.68267	13704
5.68333	13698
5.68400	13692
5.68467	13685
5.68533	13679
5.68600	13673
5.68667	13667
5.68733	13660
5.68800	13654
5.68867	13648
5.68933	13641
5.69000	13635
5.69067	13629
5.69133	13623
5.69200	13617
5.69267	13611
5.69333	13605
5.69400	13599
5.69467	13593
5.69533	13587
5.69600	13581
5.69667	13575
5.69733	13570
5.69800	13564
5.69867	13558
5.69933	13552
5.70000	13547
5.70067	13541
5.70133	13535
5.70200	13530
5.70267	13524
5.70333	13518
5.70400	13513
5.70467	13507
5.70533	13502
5.70600	13496
5.70667	13491
5.70733	13485
5.70800	13480
5.70867	13474
5.70933	13469
5.71000	13463
5.71067	13458
5.71133	13452
5.71200	13447
5.71267	13441
5.71333	13436
5.71400	13431
5.71467	13425
5.71533	13420
5.71600	13415
5.71667	13410
5.71733	13405
5.71800	13399
5.71867	13394
5.71933	13389
5.72000	13385
5.72067	13380
5.72133	13375
5.72200	13370
5.72267	13365
5.72333	13361
5.72400	13356
5.72467	13351
5.72533	13347
5.72600	13342
5.72667	13338
5.72733	13333
5.72800	13329
5.72867	13325
5.72933	13321
5.73000	13317
5.73067	13313
5.73133	13309
5.73200	13305
5.73267	13301
5.73333	13298
5.73400	13295
5.73467	13291
5.73533	13288
5.73600	13285
5.73667	13282
5.73733	13279
5.73800	13276
5.73867	13273
5.73933	13271
5.74000	13268
5.74067	13265
5.74133	13263
5.74200	13260
5.74267	13258
5.74333	13255
5.74400	13253
5.74467	13251
5.74533	13249
5.74600	13247
5.74667	13245
5.74733	13243
5.74800	13241
5.74867	13239
5.74933	13237
5.75000	13235
5.75067	13234
5.75133	13232
5.75200	13231
5.75267	13229
5.75333	13228
5.75400	13226
5.75467	13225
5.75533	13224
5.75600	13223
5.75667	13222
5.75733	13221
5.75800	13220
5.75867	13220
5.75933	13219
5.76000	13218
5.76067	13218
5.76133	13217
5.76200	13217
5.76267	13216
5.76333	13216
5.76400	13215
5.76467	13215
5.76533	13214
5.76600	13214
5.76667	13214
5.76733	13213
5.76800	13213
5.76867	13213
5.76933	13213
5.77000	13213
5.77067	13213
5.77133	13213
5.77200	13213
5.77267	13213
5.77333	13214
5.77400	13214
5.77467	13214
5.77533	13215
5.77600	13215
5.77667	13216
5.77733	13217
5.77800	13217
5.77867	13218
5.77933	13219
5.78000	13220
5.78067	13220
5.78133	13221
5.78200	13222
5.78267	13223
5.78333	13224
5.78400	13225
5.78467	13226
5.78533	13228
5.78600	13229
5.78667	13230
5.78733	13231
5.78800	13233
5.78867	13234
5.78933	13236
5.79000	13237
5.79067	13239
5.79133	13240
5.79200	13242
5.79267	13243
5.79333	13245
5.79400	13247
5.79467	13249
5.79533	13251
5.79600	13253
5.79667	13255
5.79733	13257
5.79800	13259
5.79867	13261
5.79933	13263
5.80000	13266
5.80067	13268
5.80133	13270
5.80200	13273
5.80267	13275
5.80333	13277
5.80400	13280
5.80467	13282
5.80533	13284
5.80600	13287
5.80667	13289
5.80733	13291
5.80800	13293
5.80867	13296
5.80933	13298
5.81000	13300
5.81067	13302
5.81133	13304
5.81200	13306
5.81267	13308
5.81333	13310
5.81400	13312
5.81467	13313
5.81533	13315
5.81600	13317
5.81667	13319
5.81733	13321
5.81800	13323
5.81867	13325
5.81933	13327
5.82000	13329
5.82067	13332
5.82133	13334
5.82200	13336
5.82267	13338
5.82333	13340
5.82400	13342
5.82467	13343
5.82533	13345
5.82600	13347
5.82667	13349
5.82733	13350
5.82800	13352
5.82867	13353
5.82933	13355
5.83000	13356
5.83067	13358
5.83133	13359
5.83200	13360
5.83267	13362
5.83333	13363
5.83400	13364
5.83467	13365
5.83533	13367
5.83600	13368
5.83667	13369
5.83733	13370
5.83800	13371
5.83867	13372
5.83933	13372
5.84000	13373
5.84067	13374
5.84133	13374
5.84200	13375
5.84267	13375
5.84333	13375
5.84400	13375
5.84467	13375
5.84533	13375
5.84600	13375
5.84667	13375
5.84733	13374
5.84800	13373
5.84867	13372
5.84933	13371
5.85000	13370
5.85067	13369
5.85133	13367
5.85200	13366
5.85267	13364
5.85333	13362
5.85400	13360
5.85467	13358
5.85533	13356
5.85600	13354
5.85667	13351
5.85733	13348
5.85800	13345
5.85867	13342
5.85933	13339
5.86000	13336
5.86067	13333
5.86133	13329
5.86200	13326
5.86267	13322
5.86333	13318
5.86400	13315
5.86467	13311
5.86533	13307
5.86600	13303
5.86667	13299
5.86733	13294
5.86800	13290
5.86867	13285
5.86933	13281
5.87000	13276
5.87067	13271
5.87133	13266
5.87200	13261
5.87267	13256
5.87333	13251
5.87400	13246
5.87467	13240
5.87533	13235
5.87600	13229
5.87667	13224
5.87733	13218
5.87800	13212
5.87867	13206
5.87933	13200
5.88000	13194
5.88067	13188
5.88133	13182
5.88200	13176
5.88267	13169
5.88333	13163
5.88400	13156
5.88467	13150
5.88533	13143
5.88600	13136
5.88667	13130
5.88733	13123
5.88800	13116
5.88867	13109
5.88933	13102
5.89000	13095
5.89067	13088
5.89133	13081
5.89200	13074
5.89267	13067
5.89333	13060
5.89400	13053
5.89467	13046
5.89533	13039
5.89600	13031
5.89667	13024
5.89733	13017
5.89800	13009
5.89867	13002
5.89933	12995
5.90000	12987
5.90067	12980
5.90133	12973
5.90200	12965
5.90267	12958
5.90333	12951
5.90400	12943
5.90467	12936
5.90533	12929
5.90600	12922
5.90667	12914
5.90733	12907
5.90800	12900
5.90867	12892
5.90933	12885
5.91000	12877
5.91067	12870
5.91133	12862
5.91200	12855
5.91267	12847
5.91333	12839
5.91400	12831
5.91467	12824
5.91533	12816
5.91600	12808
5.91667	12800
5.91733	12792
5.91800	12784
5.91867	12775
5.91933	12767
5.92000	12759
5.92067	12751
5.92133	12743
5.92200	12734
5.92267	12726
5.92333	12718
5.92400	12710
5.92467	12701
5.92533	12693
5.92600	12685
5.92667	12676
5.92733	12668
5.92800	12660
5.92867	12651
5.92933	12643
5.93000	12635
5.93067	12626
5.93133	12618
5.93200	12610
5.93267	12602
5.93333	12593
5.93400	12585
5.93467	12577
5.93533	12569
5.93600	12560
5.93667	12552
5.93733	12544
5.93800	12536
5.93867	12528
5.93933	12520
5.94000	12512
5.94067	12504
5.94133	12496
5.94200	12488
5.94267	12480
5.94333	12473
5.94400	12465
5.94467	12457
5.94533	12450
5.94600	12442
5.94667	12435
5.94733	12427
5.94800	12420
5.94867	12412
5.94933	12405
5.95000	12398
5.95067	12391
5.95133	12383
5.95200	12376
5.95267	12369
5.95333	12361
5.95400	12354
5.95467	12347
5.95533	12340
5.95600	12333
5.95667	12326
5.95733	12319
5.95800	12312
5.95867	12305
5.95933	12298
5.96000	12291
5.96067	12285
5.96133	12278
5.96200	12272
5.96267	12265
5.96333	12259
5.96400	12252
5.96467	12246
5.96533	12240
5.96600	12233
5.96667	12227
5.96733	12221
5.96800	12215
5.96867	12209
5.96933	12203
5.97000	12196
5.97067	12190
5.97133	12184
5.97200	12178
5.97267	12173
5.97333	12167
5.97400	12161
5.97467	12155
5.97533	12150
5.97600	12144
5.97667	12138
5.97733	12133
5.97800	12127
5.97867	12122
5.97933	12116
5.98000	12111
5.98067	12105
5.98133	12100
5.98200	12094
5.98267	12089
5.98333	12083
5.98400	12078
5.98467	12072
5.98533	12067
5.98600	12061
5.98667	12056
5.98733	12051
5.98800	12046
5.98867	12041
5.98933	12036
5.99000	12031
5.99067	12026
5.99133	12021
5.99200	12016
5.99267	12011
5.99333	12007
5.99400	12002
5.99467	11997
5.99533	11992
5.99600	11987
5.99667	11983
5.99733	11978
5.99800	11973
5.99867	11968
5.99933	11963
6.00000	11958
6.00067	11953
6.00133	11948
6.00200	11944
6.00267	11939
6.00333	11934
6.00400	11929
6.00467	11925
6.00533	11920
6.00600	11915
6.00667	11910
6.00733	11906
6.00800	11901
6.00867	11896
6.00933	11892
6.01000	11887
6.01067	11882
6.01133	11878
6.01200	11873
6.01267	11869
6.01333	11864
6.01400	11860
6.01467	11855
6.01533	11851
6.01600	11846
6.01667	11842
6.01733	11838
6.01800	11833
6.01867	11829
6.01933	11825
6.02000	11821
6.02067	11816
6.02133	11812
6.02200	11808
6.02267	11804
6.02333	11799
6.02400	11795
6.02467	11791
6.02533	11787
6.02600	11783
6.02667	11778
6.02733	11774
6.02800	11770
6.02867	11766
6.02933	11762
6.03000	11758
6.03067	11754
6.03133	11750
6.03200	11746
6.03267	11742
6.03333	11738
6.03400	11734
6.03467	11730
6.03533	11726
6.03600	11722
6.03667	11718
6.03733	11714
6.03800	11710
6.03867	11706
6.03933	11702
6.04000	11698
6.04067	11694
6.04133	11690
6.04200	11686
6.04267	11682
6.04333	11678
6.04400	11674
6.04467	11670
6.04533	11666
6.04600	11662
6.04667	11658
6.04733	11654
6.04800	11650
6.04867	11647
6.04933	11643
6.05000	11639
6.05067	11636
6.05133	11632
6.05200	11628
6.05267	11625
6.05333	11622
6.05400	11618
6.05467	11615
6.05533	11611
6.05600	11608
6.05667	11604
6.05733	11601
6.05800	11598
6.05867	11594
6.05933	11591
6.06000	11588
6.06067	11585
6.06133	11582
6.06200	11579
6.06267	11575
6.06333	11572
6.06400	11569
6.06467	11566
6.06533	11563
6.06600	11560
6.06667	11557
6.06733	11554
6.06800	11552
6.06867	11549
6.06933	11546
6.07000	11543
6.07067	11540
6.07133	11537
6.07200	11534
6.07267	11532
6.07333	11529
6.07400	11526
6.07467	11524
6.07533	11521
6.07600	11518
6.07667	11516
6.07733	11513
6.07800	11511
6.07867	11508
6.07933	11505
6.08000	11503
6.08067	11500
6.08133	11497
6.08200	11495
6.08267	11492
6.08333	11489
6.08400	11487
6.08467	11484
6.08533	11481
6.08600	11478
6.08667	11475
6.08733	11472
6.08800	11469
6.08867	11466
6.08933	11463
6.09000	11461
6.09067	11458
6.09133	11455
6.09200	11452
6.09267	11449
6.09333	11446
6.09400	11443
6.09467	11440
6.09533	11437
6.09600	11434
6.09667	11431
6.09733	11428
6.09800	11425
6.09867	11422
6.09933	11419
6.10000	11417
6.10067	11414
6.10133	11411
6.10200	11408
6.10267	11405
6.10333	11402
6.10400	11399
6.10467	11396
6.10533	11393
6.10600	11390
6.10667	11387
6.10733	11384
6.10800	11382
6.10867	11379
6.10933	11376
6.11000	11373
6.11067	11371
6.11133	11368
6.11200	11365
6.11267	11363
6.11333	11360
6.11400	11358
6.11467	11356
6.11533	11353
6.11600	11351
6.11667	11348
6.11733	11346
6.11800	11344
6.11867	11342
6.11933	11340
6.12000	11337
6.12067	11335
6.12133	11333
6.12200	11331
6.12267	11329
6.12333	11327
6.12400	11325
6.12467	11323
6.12533	11321
6.12600	11319
6.12667	11317
6.12733	11316
6.12800	11314
6.12867	11312
6.12933	11310
6.13000	11309
6.13067	11307
6.13133	11306
6.13200	11304
6.13267	11302
6.13333	11301
6.13400	11299
6.13467	11298
6.13533	11296
6.13600	11295
6.13667	11293
6.13733	11291
6.13800	11290
6.13867	11288
6.13933	11287
6.14000	11285
6.14067	11283
6.14133	11281
6.14200	11280
6.14267	11278
6.14333	11276
6.14400	11274
6.14467	11272
6.14533	11270
6.14600	11268
6.14667	11266
6.14733	11264
6.14800	11262
6.14867	11260
6.14933	11258
6.15000	11256
6.15067	11254
6.15133	11252
6.15200	11249
6.15267	11247
6.15333	11245
6.15400	11243
6.15467	11240
6.15533	11238
6.15600	11236
6.15667	11233
6.15733	11231
6.15800	11228
6.15867	11226
6.15933	11223
6.16000	11221
6.16067	11219
6.16133	11216
6.16200	11214
6.16267	11211
6.16333	11209
6.16400	11206
6.16467	11204
6.16533	11201
6.16600	11199
6.16667	11196
6.16733	11194
6.16800	11191
6.16867	11189
6.16933	11186
6.17000	11184
6.17067	11181
6.17133	11179
6.17200	11177
6.17267	11174
6.17333	11172
6.17400	11170
6.17467	11167
6.17533	11165
6.17600	11163
6.17667	11161
6.17733	11158
6.17800	11156
6.17867	11154
6.17933	11151
6.18000	11149
6.18067	11147
6.18133	11145
6.18200	11142
6.18267	11140
6.18333	11138
6.18400	11136
6.18467	11134
6.18533	11131
6.18600	11129
6.18667	11127
6.18733	11125
6.18800	11123
6.18867	11120
6.18933	11118
6.19000	11116
6.19067	11114
6.19133	11112
6.19200	11110
6.19267	11108
6.19333	11106
6.19400	11104
6.19467	11102
6.19533	11100
6.19600	11098
6.19667	11096
6.19733	11095
6.19800	11093
6.19867	11091
6.19933	11089
6.20000	11087
6.20067	11085
6.20133	11083
6.20200	11082
6.20267	11080
6.20333	11078
6.20400	11076
6.20467	11075
6.20533	11073
6.20600	11071
6.20667	11070
6.20733	11068
6.20800	11067
6.20867	11065
6.20933	11063
6.21000	11062
6.21067	11060
6.21133	11058
6.21200	11057
6.21267	11055
6.21333	11053
6.21400	11052
6.21467	11050
6.21533	11048
6.21600	11047
6.21667	11045
6.21733	11044
6.21800	11042
6.21867	11040
6.21933	11039
6.22000	11037
6.22067	11035
6.22133	11034
6.22200	11032
6.22267	11030
6.22333	11029
6.22400	11027
6.22467	11025
6.22533	11024
6.22600	11022
6.22667	11021
6.22733	11019
6.22800	11018
6.22867	11016
6.22933	11015
6.23000	11013
6.23067	11012
6.23133	11011
6.23200	11009
6.23267	11008
6.23333	11007
6.23400	11006
6.23467	11004
6.23533	11003
6.23600	11002
6.23667	11001
6.23733	11000
6.23800	10999
6.23867	10998
6.23933	10997
6.24000	10996
6.24067	10996
6.24133	10995
6.24200	10994
6.24267	10993
6.24333	10993
6.24400	10992
6.24467	10991
6.24533	10991
6.24600	10990
6.24667	10990
6.24733	10989
6.24800	10989
6.24867	10988
6.24933	10988
6.25000	10988
6.25067	10988
6.25133	10987
6.25200	10987
6.25267	10987
6.25333	10987
6.25400	10987
6.25467	10987
6.25533	10987
6.25600	10987
6.25667	10987
6.25733	10987
6.25800	10987
6.25867	10988
6.25933	10988
6.26000	10988
6.26067	10989
6.26133	10989
6.26200	10990
6.26267	10990
6.26333	10991
6.26400	10991
6.26467	10991
6.26533	10992
6.26600	10992
6.26667	10993
6.26733	10993
6.26800	10994
6.26867	10995
6.26933	10995
6.27000	10996
6.27067	10997
6.27133	10997
6.27200	10998
6.27267	10999
6.27333	10999
6.27400	11000
6.27467	11001
6.27533	11002
6.27600	11002
6.27667	11003
6.27733	11003
6.27800	11004
6.27867	11005
6.27933	11005
6.28000	11006
6.28067	11006
6.28133	11007
6.28200	11007
6.28267	11007
6.28333	11007
6.28400	11008
6.28467	11008
6.28533	11008
6.28600	11008
6.28667	11008
6.28733	11008
6.28800	11008
6.28867	11008
6.28933	11008
6.29000	11007
6.29067	11007
6.29133	11007
6.29200	11006
6.29267	11006
6.29333	11005
6.29400	11005
6.29467	11004
6.29533	11004
6.29600	11003
6.29667	11003
6.29733	11002
6.29800	11002
6.29867	11001
6.29933	11000
6.30000	11000
6.30067	10999
6.30133	10998
6.30200	10997
6.30267	10997
6.30333	10996
6.30400	10995
6.30467	10995
6.30533	10994
6.30600	10993
6.30667	10992
6.30733	10991
6.30800	10990
6.30867	10989
6.30933	10988
6.31000	10987
6.31067	10986
6.31133	10985
6.31200	10984
6.31267	10983
6.31333	10982
6.31400	10981
6.31467	10979
6.31533	10978
6.31600	10977
6.31667	10976
6.31733	10975
6.31800	10974
6.31867	10973
6.31933	10971
6.32000	10970
6.32067	10969
6.32133	10967
6.32200	10966
6.32267	10964
6.32333	10963
6.32400	10962
6.32467	10960
6.32533	10959
6.32600	10957
6.32667	10956
6.32733	10954
6.32800	10952
6.32867	10951
6.32933	10949
6.33000	10947
6.33067	10946
6.33133	10944
6.33200	10942
6.33267	10940
6.33333	10938
6.33400	10936
6.33467	10934
6.33533	10932
6.33600	10930
6.33667	10927
6.33733	10925
6.33800	10923
6.33867	10920
6.33933	10917
6.34000	10915
6.34067	10912
6.34133	10909
6.34200	10907
6.34267	10904
6.34333	10901
6.34400	10898
6.34467	10895
6.34533	10892
6.34600	10889
6.34667	10886
6.34733	10883
6.34800	10880
6.34867	10877
6.34933	10874
6.35000	10871
6.35067	10868
6.35133	10865
6.35200	10862
6.35267	10858
6.35333	10855
6.35400	10852
6.35467	10849
6.35533	10845
6.35600	10842
6.35667	10839
6.35733	10836
6.35800	10832
6.35867	10829
6.35933	10826
6.36000	10823
6.36067	10819
6.36133	10816
6.36200	10813
6.36267	10810
6.36333	10807
6.36400	10804
6.36467	10800
6.36533	10797
6.36600	10794
6.36667	10791
6.36733	10788
6.36800	10785
6.36867	10782
6.36933	10779
6.37000	10776
6.37067	10773
6.37133	10770
6.37200	10767
6.37267	10764
6.37333	10761
6.37400	10758
6.37467	10756
6.37533	10753
6.37600	10750
6.37667	10748
6.37733	10745
6.37800	10742
6.37867	10740
6.37933	10737
6.38000	10734
6.38067	10732
6.38133	10729
6.38200	10727
6.38267	10724
6.38333	10721
6.38400	10719
6.38467	10716
6.38533	10714
6.38600	10711
6.38667	10708
6.38733	10706
6.38800	10703
6.38867	10700
6.38933	10697
6.39000	10695
6.39067	10692
6.39133	10689
6.39200	10687
6.39267	10684
6.39333	10681
6.39400	10678
6.39467	10676
6.39533	10673
6.39600	10670
6.39667	10667
6.39733	10665
6.39800	10660
6.39867	10659
6.39933	10656

