[Header]
Application Name	LabSolutions
Version	5.73
Data File Name	C:\LabSolutions\Data\Project1\stephen\2016-01-06\29.gcd
Output Date	1/11/2016
Output Time	1:19:44 PM

[Configuration]
Instrument Name	WEISSTA-PC-Instrument1
Instrument #	1
Line #	1
# of Detectors	1
Detector ID	DET#2
Detector Name	DFID1
# of Channels	1

[Chromatogram (Ch1)]
Interval(msec)	40
# of Points	9599
Start Time(min)	0.001
End Time(min)	6.399
R.Time (min)	Intensity
0.00067	6
0.00133	6
0.00200	7
0.00267	7
0.00333	7
0.00400	7
0.00467	7
0.00533	7
0.00600	6
0.00667	6
0.00733	6
0.00800	6
0.00867	5
0.00933	4
0.01000	2
0.01067	0
0.01133	-2
0.01200	-5
0.01267	-8
0.01333	-12
0.01400	-16
0.01467	-21
0.01533	-26
0.01600	-31
0.01667	-37
0.01733	-43
0.01800	-49
0.01867	-55
0.01933	-62
0.02000	-68
0.02067	-75
0.02133	-81
0.02200	-87
0.02267	-94
0.02333	-100
0.02400	-106
0.02467	-111
0.02533	-117
0.02600	-122
0.02667	-127
0.02733	-132
0.02800	-137
0.02867	-141
0.02933	-145
0.03000	-149
0.03067	-153
0.03133	-156
0.03200	-160
0.03267	-163
0.03333	-165
0.03400	-168
0.03467	-170
0.03533	-172
0.03600	-174
0.03667	-176
0.03733	-177
0.03800	-178
0.03867	-180
0.03933	-181
0.04000	-181
0.04067	-182
0.04133	-183
0.04200	-184
0.04267	-184
0.04333	-185
0.04400	-185
0.04467	-185
0.04533	-186
0.04600	-186
0.04667	-186
0.04733	-186
0.04800	-186
0.04867	-186
0.04933	-186
0.05000	-186
0.05067	-186
0.05133	-185
0.05200	-185
0.05267	-185
0.05333	-185
0.05400	-185
0.05467	-184
0.05533	-184
0.05600	-184
0.05667	-184
0.05733	-183
0.05800	-183
0.05867	-183
0.05933	-183
0.06000	-182
0.06067	-182
0.06133	-182
0.06200	-181
0.06267	-181
0.06333	-180
0.06400	-180
0.06467	-180
0.06533	-179
0.06600	-179
0.06667	-178
0.06733	-178
0.06800	-177
0.06867	-177
0.06933	-176
0.07000	-176
0.07067	-175
0.07133	-175
0.07200	-174
0.07267	-174
0.07333	-173
0.07400	-173
0.07467	-172
0.07533	-172
0.07600	-171
0.07667	-171
0.07733	-170
0.07800	-170
0.07867	-169
0.07933	-169
0.08000	-169
0.08067	-168
0.08133	-168
0.08200	-167
0.08267	-167
0.08333	-167
0.08400	-166
0.08467	-166
0.08533	-166
0.08600	-165
0.08667	-163
0.08733	-160
0.08800	-155
0.08867	-142
0.08933	-119
0.09000	-90
0.09067	-55
0.09133	-4
0.09200	78
0.09267	192
0.09333	330
0.09400	500
0.09467	696
0.09533	941
0.09600	1229
0.09667	1555
0.09733	1955
0.09800	2386
0.09867	2819
0.09933	3274
0.10000	3737
0.10067	4244
0.10133	4801
0.10200	5398
0.10267	6063
0.10333	6784
0.10400	7534
0.10467	8328
0.10533	9123
0.10600	9966
0.10667	10915
0.10733	11871
0.10800	12789
0.10867	13741
0.10933	14745
0.11000	15767
0.11067	16750
0.11133	17719
0.11200	18667
0.11267	19557
0.11333	20399
0.11400	21239
0.11467	22028
0.11533	22758
0.11600	23451
0.11667	24124
0.11733	24786
0.11800	25442
0.11867	26074
0.11933	26680
0.12000	27267
0.12067	27801
0.12133	28281
0.12200	28725
0.12267	29124
0.12333	29485
0.12400	29797
0.12467	30054
0.12533	30266
0.12600	30461
0.12667	30649
0.12733	30813
0.12800	30932
0.12867	31010
0.12933	31052
0.13000	31085
0.13067	31095
0.13133	31074
0.13200	31023
0.13267	30940
0.13333	30831
0.13400	30737
0.13467	30819
0.13533	31685
0.13600	35074
0.13667	45120
0.13733	69976
0.13800	124501
0.13867	231227
0.13933	420860
0.14000	725808
0.14067	1177689
0.14133	1803304
0.14200	2625831
0.14267	3662710
0.14333	4926180
0.14400	6422940
0.14467	8156147
0.14533	10124742
0.14600	12319147
0.14667	14724892
0.14733	17347916
0.14800	20214878
0.14867	23343856
0.14933	26734498
0.15000	30373360
0.15067	34239910
0.15133	38310171
0.15200	42558589
0.15267	46960575
0.15333	51490920
0.15400	56125838
0.15467	60842468
0.15533	65619399
0.15600	70436202
0.15667	75273558
0.15733	80112980
0.15800	84937502
0.15867	89730990
0.15933	94478144
0.16000	99163918
0.16067	103774690
0.16133	108297954
0.16200	112721983
0.16267	117036314
0.16333	121231419
0.16400	125299192
0.16467	129232294
0.16533	133024352
0.16600	136669730
0.16667	140163923
0.16733	143503238
0.16800	146685043
0.16867	149706729
0.16933	152566432
0.17000	155262859
0.17067	157795621
0.17133	160164526
0.17200	162370105
0.17267	164413310
0.17333	166295829
0.17400	168020478
0.17467	169590701
0.17533	171009479
0.17600	172278760
0.17667	173399997
0.17733	174374809
0.17800	175205198
0.17867	175893293
0.17933	176441584
0.18000	176852882
0.18067	177130308
0.18133	177277068
0.18200	177296656
0.18267	177192643
0.18333	176968994
0.18400	176629736
0.18467	176179198
0.18533	175621443
0.18600	174960582
0.18667	174200706
0.18733	173346056
0.18800	172400779
0.18867	171368993
0.18933	170254704
0.19000	169061872
0.19067	167794372
0.19133	166456101
0.19200	165050752
0.19267	163582070
0.19333	162053862
0.19400	160469919
0.19467	158833979
0.19533	157149577
0.19600	155420170
0.19667	153649098
0.19733	151839606
0.19800	149994860
0.19867	148118025
0.19933	146212169
0.20000	144280380
0.20067	142325697
0.20133	140351158
0.20200	138359796
0.20267	136354951
0.20333	134340346
0.20400	132319579
0.20467	130295475
0.20533	128269894
0.20600	126244059
0.20667	124218932
0.20733	122195457
0.20800	120174679
0.20867	118157782
0.20933	116146041
0.21000	114140829
0.21067	112143556
0.21133	110155620
0.21200	108178374
0.21267	106213135
0.21333	104261163
0.21400	102323668
0.21467	100401777
0.21533	98496563
0.21600	96609019
0.21667	94740064
0.21733	92890531
0.21800	91061189
0.21867	89252740
0.21933	87465832
0.22000	85701043
0.22067	83958895
0.22133	82239851
0.22200	80544321
0.22267	78872674
0.22333	77225224
0.22400	75602237
0.22467	74003931
0.22533	72430487
0.22600	70882037
0.22667	69358685
0.22733	67860492
0.22800	66387492
0.22867	64939697
0.22933	63517065
0.23000	62119532
0.23067	60747027
0.23133	59399445
0.23200	58076659
0.23267	56778511
0.23333	55504828
0.23400	54255420
0.23467	53030088
0.23533	51828614
0.23600	50650774
0.23667	49496330
0.23733	48365030
0.23800	47256614
0.23867	46170811
0.23933	45107345
0.24000	44065938
0.24067	43046303
0.24133	42048145
0.24200	41071161
0.24267	40115045
0.24333	39179490
0.24400	38264186
0.24467	37368817
0.24533	36493064
0.24600	35636606
0.24667	34799123
0.24733	33980294
0.24800	33179793
0.24867	32397296
0.24933	31632475
0.25000	30885000
0.25067	30154541
0.25133	29440765
0.25200	28743345
0.25267	28061952
0.25333	27396260
0.25400	26745943
0.25467	26110683
0.25533	25490164
0.25600	24884076
0.25667	24292112
0.25733	23713969
0.25800	23149348
0.25867	22597957
0.25933	22059504
0.26000	21533703
0.26067	21020272
0.26133	20518935
0.26200	20029418
0.26267	19551455
0.26333	19084780
0.26400	18629134
0.26467	18184261
0.26533	17749912
0.26600	17325843
0.26667	16911812
0.26733	16507583
0.26800	16112925
0.26867	15727612
0.26933	15351423
0.27000	14984143
0.27067	14625564
0.27133	14275480
0.27200	13933688
0.27267	13599995
0.27333	13274207
0.27400	12956139
0.27467	12645608
0.27533	12342436
0.27600	12046448
0.27667	11757476
0.27733	11475351
0.27800	11199914
0.27867	10931009
0.27933	10668484
0.28000	10412189
0.28067	10161978
0.28133	9917710
0.28200	9679245
0.28267	9446448
0.28333	9219187
0.28400	8997333
0.28467	8780762
0.28533	8569351
0.28600	8362982
0.28667	8161540
0.28733	7964911
0.28800	7772986
0.28867	7585656
0.28933	7402815
0.29000	7224361
0.29067	7050192
0.29133	6880213
0.29200	6714327
0.29267	6552443
0.29333	6394470
0.29400	6240320
0.29467	6089907
0.29533	5943146
0.29600	5799956
0.29667	5660258
0.29733	5523977
0.29800	5391036
0.29867	5261363
0.29933	5134888
0.30000	5011540
0.30067	4891250
0.30133	4773953
0.30200	4659582
0.30267	4548072
0.30333	4439359
0.30400	4333379
0.30467	4230072
0.30533	4129375
0.30600	4031228
0.30667	3935571
0.30733	3842346
0.30800	3751494
0.30867	3662958
0.30933	3576681
0.31000	3492611
0.31067	3410694
0.31133	3330881
0.31200	3253121
0.31267	3177366
0.31333	3103570
0.31400	3031687
0.31467	2961673
0.31533	2893483
0.31600	2827076
0.31667	2762412
0.31733	2699452
0.31800	2638158
0.31867	2578494
0.31933	2520424
0.32000	2463915
0.32067	2408933
0.32133	2355445
0.32200	2303419
0.32267	2252824
0.32333	2203627
0.32400	2155799
0.32467	2109311
0.32533	2064134
0.32600	2020240
0.32667	1977602
0.32733	1936193
0.32800	1895986
0.32867	1856957
0.32933	1819079
0.33000	1782330
0.33067	1746686
0.33133	1712125
0.33200	1678625
0.33267	1646166
0.33333	1614728
0.33400	1584294
0.33467	1554848
0.33533	1526374
0.33600	1498859
0.33667	1472293
0.33733	1446664
0.33800	1421963
0.33867	1398184
0.33933	1375321
0.34000	1353366
0.34067	1332319
0.34133	1312178
0.34200	1292950
0.34267	1274643
0.34333	1257269
0.34400	1240847
0.34467	1225393
0.34533	1210926
0.34600	1197459
0.34667	1184995
0.34733	1173533
0.34800	1163059
0.34867	1153552
0.34933	1144984
0.35000	1137317
0.35067	1130509
0.35133	1124516
0.35200	1119291
0.35267	1114784
0.35333	1110948
0.35400	1107733
0.35467	1105094
0.35533	1102989
0.35600	1101379
0.35667	1100226
0.35733	1099496
0.35800	1099155
0.35867	1099174
0.35933	1099522
0.36000	1100169
0.36067	1101087
0.36133	1102250
0.36200	1103632
0.36267	1105208
0.36333	1106953
0.36400	1108844
0.36467	1110857
0.36533	1112973
0.36600	1115170
0.36667	1117432
0.36733	1119740
0.36800	1122080
0.36867	1124437
0.36933	1126799
0.37000	1129157
0.37067	1131501
0.37133	1133823
0.37200	1136118
0.37267	1138380
0.37333	1140602
0.37400	1142781
0.37467	1144908
0.37533	1146978
0.37600	1148986
0.37667	1150923
0.37733	1152785
0.37800	1154567
0.37867	1156266
0.37933	1157880
0.38000	1159406
0.38067	1160846
0.38133	1162200
0.38200	1163470
0.38267	1164658
0.38333	1165769
0.38400	1166809
0.38467	1167784
0.38533	1168700
0.38600	1169560
0.38667	1170366
0.38733	1171117
0.38800	1171810
0.38867	1172437
0.38933	1172994
0.39000	1173472
0.39067	1173859
0.39133	1174148
0.39200	1174333
0.39267	1174410
0.39333	1174375
0.39400	1174223
0.39467	1173951
0.39533	1173558
0.39600	1173041
0.39667	1172400
0.39733	1171632
0.39800	1170737
0.39867	1169714
0.39933	1168562
0.40000	1167279
0.40067	1165864
0.40133	1164314
0.40200	1162623
0.40267	1160784
0.40333	1158788
0.40400	1156623
0.40467	1154275
0.40533	1151733
0.40600	1148982
0.40667	1146008
0.40733	1142798
0.40800	1139341
0.40867	1135625
0.40933	1131639
0.41000	1127368
0.41067	1122796
0.41133	1117909
0.41200	1112689
0.41267	1107124
0.41333	1101199
0.41400	1094903
0.41467	1088225
0.41533	1081152
0.41600	1073672
0.41667	1065773
0.41733	1057444
0.41800	1048677
0.41867	1039470
0.41933	1029824
0.42000	1019750
0.42067	1009264
0.42133	998384
0.42200	987137
0.42267	975549
0.42333	963648
0.42400	951465
0.42467	939028
0.42533	926368
0.42600	913512
0.42667	900489
0.42733	887324
0.42800	874043
0.42867	860668
0.42933	847222
0.43000	833727
0.43067	820203
0.43133	806669
0.43200	793144
0.43267	779645
0.43333	766188
0.43400	752788
0.43467	739458
0.43533	726210
0.43600	713057
0.43667	700008
0.43733	687073
0.43800	674259
0.43867	661575
0.43933	649027
0.44000	636620
0.44067	624360
0.44133	612253
0.44200	600303
0.44267	588515
0.44333	576894
0.44400	565444
0.44467	554168
0.44533	543070
0.44600	532152
0.44667	521417
0.44733	510866
0.44800	500501
0.44867	490323
0.44933	480333
0.45000	470532
0.45067	460919
0.45133	451494
0.45200	442257
0.45267	433207
0.45333	424345
0.45400	415669
0.45467	407179
0.45533	398874
0.45600	390752
0.45667	382814
0.45733	375058
0.45800	367484
0.45867	360091
0.45933	352878
0.46000	345844
0.46067	338989
0.46133	332312
0.46200	325811
0.46267	319483
0.46333	313325
0.46400	307335
0.46467	301507
0.46533	295837
0.46600	290322
0.46667	284960
0.46733	279745
0.46800	274676
0.46867	269747
0.46933	264955
0.47000	260296
0.47067	255767
0.47133	251364
0.47200	247083
0.47267	242921
0.47333	238874
0.47400	234938
0.47467	231112
0.47533	227391
0.47600	223773
0.47667	220254
0.47733	216831
0.47800	213503
0.47867	210265
0.47933	207116
0.48000	204053
0.48067	201073
0.48133	198173
0.48200	195352
0.48267	192606
0.48333	189934
0.48400	187333
0.48467	184801
0.48533	182336
0.48600	179935
0.48667	177597
0.48733	175318
0.48800	173098
0.48867	170933
0.48933	168823
0.49000	166765
0.49067	164757
0.49133	162798
0.49200	160886
0.49267	159020
0.49333	157198
0.49400	155419
0.49467	153681
0.49533	151982
0.49600	150322
0.49667	148700
0.49733	147113
0.49800	145562
0.49867	144044
0.49933	142559
0.50000	141105
0.50067	139682
0.50133	138289
0.50200	136925
0.50267	135588
0.50333	134279
0.50400	132996
0.50467	131738
0.50533	130504
0.50600	129295
0.50667	128108
0.50733	126944
0.50800	125802
0.50867	124680
0.50933	123579
0.51000	122498
0.51067	121435
0.51133	120392
0.51200	119366
0.51267	118358
0.51333	117366
0.51400	116392
0.51467	115433
0.51533	114489
0.51600	113561
0.51667	112647
0.51733	111748
0.51800	110862
0.51867	109990
0.51933	109131
0.52000	108284
0.52067	107450
0.52133	106628
0.52200	105818
0.52267	105019
0.52333	104230
0.52400	103453
0.52467	102686
0.52533	101930
0.52600	101184
0.52667	100447
0.52733	99720
0.52800	99002
0.52867	98293
0.52933	97593
0.53000	96902
0.53067	96219
0.53133	95545
0.53200	94878
0.53267	94220
0.53333	93569
0.53400	92926
0.53467	92291
0.53533	91662
0.53600	91041
0.53667	90427
0.53733	89820
0.53800	89219
0.53867	88625
0.53933	88038
0.54000	87457
0.54067	86882
0.54133	86314
0.54200	85751
0.54267	85195
0.54333	84644
0.54400	84100
0.54467	83560
0.54533	83027
0.54600	82498
0.54667	81976
0.54733	81458
0.54800	80946
0.54867	80439
0.54933	79938
0.55000	79441
0.55067	78950
0.55133	78463
0.55200	77982
0.55267	77505
0.55333	77034
0.55400	76567
0.55467	76106
0.55533	75649
0.55600	75197
0.55667	74749
0.55733	74306
0.55800	73868
0.55867	73434
0.55933	73005
0.56000	72580
0.56067	72160
0.56133	71744
0.56200	71333
0.56267	70925
0.56333	70522
0.56400	70122
0.56467	69727
0.56533	69336
0.56600	68948
0.56667	68565
0.56733	68185
0.56800	67809
0.56867	67437
0.56933	67068
0.57000	66703
0.57067	66341
0.57133	65983
0.57200	65627
0.57267	65276
0.57333	64927
0.57400	64581
0.57467	64238
0.57533	63899
0.57600	63562
0.57667	63228
0.57733	62896
0.57800	62568
0.57867	62242
0.57933	61918
0.58000	61597
0.58067	61279
0.58133	60963
0.58200	60650
0.58267	60339
0.58333	60031
0.58400	59725
0.58467	59422
0.58533	59121
0.58600	58823
0.58667	58527
0.58733	58233
0.58800	57942
0.58867	57653
0.58933	57367
0.59000	57083
0.59067	56801
0.59133	56522
0.59200	56245
0.59267	55970
0.59333	55698
0.59400	55428
0.59467	55161
0.59533	54897
0.59600	54634
0.59667	54375
0.59733	54118
0.59800	53863
0.59867	53612
0.59933	53363
0.60000	53117
0.60067	52874
0.60133	52634
0.60200	52398
0.60267	52165
0.60333	51936
0.60400	51711
0.60467	51490
0.60533	51274
0.60600	51062
0.60667	50856
0.60733	50656
0.60800	50463
0.60867	50276
0.60933	50097
0.61000	49925
0.61067	49763
0.61133	49609
0.61200	49465
0.61267	49331
0.61333	49208
0.61400	49096
0.61467	48995
0.61533	48905
0.61600	48827
0.61667	48759
0.61733	48702
0.61800	48655
0.61867	48617
0.61933	48587
0.62000	48565
0.62067	48549
0.62133	48539
0.62200	48532
0.62267	48529
0.62333	48527
0.62400	48525
0.62467	48523
0.62533	48519
0.62600	48512
0.62667	48500
0.62733	48484
0.62800	48462
0.62867	48434
0.62933	48399
0.63000	48356
0.63067	48306
0.63133	48248
0.63200	48182
0.63267	48109
0.63333	48027
0.63400	47937
0.63467	47840
0.63533	47735
0.63600	47623
0.63667	47505
0.63733	47380
0.63800	47248
0.63867	47111
0.63933	46968
0.64000	46821
0.64067	46668
0.64133	46512
0.64200	46351
0.64267	46186
0.64333	46018
0.64400	45847
0.64467	45673
0.64533	45497
0.64600	45318
0.64667	45137
0.64733	44954
0.64800	44769
0.64867	44583
0.64933	44396
0.65000	44207
0.65067	44018
0.65133	43827
0.65200	43636
0.65267	43445
0.65333	43252
0.65400	43060
0.65467	42867
0.65533	42674
0.65600	42481
0.65667	42287
0.65733	42094
0.65800	41902
0.65867	41709
0.65933	41517
0.66000	41325
0.66067	41134
0.66133	40943
0.66200	40753
0.66267	40563
0.66333	40374
0.66400	40186
0.66467	39999
0.66533	39813
0.66600	39628
0.66667	39443
0.66733	39260
0.66800	39077
0.66867	38896
0.66933	38716
0.67000	38537
0.67067	38359
0.67133	38182
0.67200	38007
0.67267	37833
0.67333	37660
0.67400	37489
0.67467	37319
0.67533	37151
0.67600	36984
0.67667	36819
0.67733	36655
0.67800	36493
0.67867	36333
0.67933	36174
0.68000	36017
0.68067	35862
0.68133	35709
0.68200	35558
0.68267	35408
0.68333	35261
0.68400	35116
0.68467	34973
0.68533	34833
0.68600	34695
0.68667	34559
0.68733	34427
0.68800	34297
0.68867	34170
0.68933	34047
0.69000	33926
0.69067	33809
0.69133	33696
0.69200	33587
0.69267	33481
0.69333	33380
0.69400	33282
0.69467	33189
0.69533	33100
0.69600	33015
0.69667	32935
0.69733	32859
0.69800	32787
0.69867	32719
0.69933	32655
0.70000	32594
0.70067	32537
0.70133	32483
0.70200	32432
0.70267	32384
0.70333	32338
0.70400	32293
0.70467	32250
0.70533	32207
0.70600	32165
0.70667	32123
0.70733	32081
0.70800	32038
0.70867	31994
0.70933	31949
0.71000	31902
0.71067	31854
0.71133	31804
0.71200	31752
0.71267	31697
0.71333	31641
0.71400	31582
0.71467	31521
0.71533	31458
0.71600	31392
0.71667	31324
0.71733	31254
0.71800	31182
0.71867	31108
0.71933	31032
0.72000	30954
0.72067	30875
0.72133	30794
0.72200	30711
0.72267	30627
0.72333	30542
0.72400	30456
0.72467	30369
0.72533	30280
0.72600	30191
0.72667	30101
0.72733	30011
0.72800	29920
0.72867	29829
0.72933	29737
0.73000	29645
0.73067	29553
0.73133	29461
0.73200	29368
0.73267	29276
0.73333	29183
0.73400	29091
0.73467	28998
0.73533	28906
0.73600	28814
0.73667	28723
0.73733	28631
0.73800	28540
0.73867	28449
0.73933	28359
0.74000	28269
0.74067	28179
0.74133	28090
0.74200	28002
0.74267	27914
0.74333	27826
0.74400	27739
0.74467	27653
0.74533	27567
0.74600	27482
0.74667	27397
0.74733	27313
0.74800	27230
0.74867	27147
0.74933	27065
0.75000	26983
0.75067	26903
0.75133	26822
0.75200	26743
0.75267	26664
0.75333	26585
0.75400	26507
0.75467	26430
0.75533	26354
0.75600	26278
0.75667	26203
0.75733	26129
0.75800	26055
0.75867	25982
0.75933	25909
0.76000	25838
0.76067	25766
0.76133	25696
0.76200	25626
0.76267	25557
0.76333	25488
0.76400	25420
0.76467	25352
0.76533	25285
0.76600	25219
0.76667	25153
0.76733	25088
0.76800	25024
0.76867	24960
0.76933	24897
0.77000	24834
0.77067	24772
0.77133	24711
0.77200	24650
0.77267	24590
0.77333	24531
0.77400	24472
0.77467	24414
0.77533	24356
0.77600	24299
0.77667	24243
0.77733	24187
0.77800	24131
0.77867	24076
0.77933	24022
0.78000	23968
0.78067	23915
0.78133	23862
0.78200	23810
0.78267	23758
0.78333	23707
0.78400	23656
0.78467	23605
0.78533	23555
0.78600	23506
0.78667	23457
0.78733	23408
0.78800	23360
0.78867	23312
0.78933	23264
0.79000	23217
0.79067	23170
0.79133	23124
0.79200	23078
0.79267	23032
0.79333	22987
0.79400	22943
0.79467	22898
0.79533	22854
0.79600	22811
0.79667	22767
0.79733	22724
0.79800	22682
0.79867	22639
0.79933	22598
0.80000	22556
0.80067	22515
0.80133	22474
0.80200	22433
0.80267	22393
0.80333	22352
0.80400	22313
0.80467	22273
0.80533	22234
0.80600	22195
0.80667	22156
0.80733	22117
0.80800	22079
0.80867	22041
0.80933	22003
0.81000	21965
0.81067	21928
0.81133	21891
0.81200	21854
0.81267	21818
0.81333	21782
0.81400	21747
0.81467	21712
0.81533	21677
0.81600	21643
0.81667	21609
0.81733	21575
0.81800	21542
0.81867	21509
0.81933	21477
0.82000	21445
0.82067	21413
0.82133	21381
0.82200	21350
0.82267	21319
0.82333	21289
0.82400	21258
0.82467	21228
0.82533	21198
0.82600	21168
0.82667	21138
0.82733	21109
0.82800	21079
0.82867	21050
0.82933	21021
0.83000	20992
0.83067	20963
0.83133	20934
0.83200	20905
0.83267	20877
0.83333	20848
0.83400	20820
0.83467	20792
0.83533	20764
0.83600	20735
0.83667	20707
0.83733	20680
0.83800	20652
0.83867	20624
0.83933	20596
0.84000	20569
0.84067	20541
0.84133	20514
0.84200	20486
0.84267	20459
0.84333	20432
0.84400	20404
0.84467	20377
0.84533	20350
0.84600	20323
0.84667	20295
0.84733	20268
0.84800	20241
0.84867	20214
0.84933	20187
0.85000	20160
0.85067	20133
0.85133	20106
0.85200	20079
0.85267	20051
0.85333	20024
0.85400	19997
0.85467	19970
0.85533	19943
0.85600	19916
0.85667	19888
0.85733	19861
0.85800	19834
0.85867	19807
0.85933	19780
0.86000	19753
0.86067	19725
0.86133	19698
0.86200	19671
0.86267	19644
0.86333	19617
0.86400	19590
0.86467	19564
0.86533	19537
0.86600	19510
0.86667	19484
0.86733	19457
0.86800	19431
0.86867	19404
0.86933	19378
0.87000	19352
0.87067	19326
0.87133	19300
0.87200	19274
0.87267	19248
0.87333	19222
0.87400	19197
0.87467	19171
0.87533	19146
0.87600	19121
0.87667	19096
0.87733	19071
0.87800	19046
0.87867	19022
0.87933	18997
0.88000	18973
0.88067	18948
0.88133	18924
0.88200	18901
0.88267	18877
0.88333	18853
0.88400	18830
0.88467	18807
0.88533	18784
0.88600	18761
0.88667	18738
0.88733	18716
0.88800	18694
0.88867	18672
0.88933	18650
0.89000	18628
0.89067	18607
0.89133	18586
0.89200	18565
0.89267	18545
0.89333	18524
0.89400	18504
0.89467	18485
0.89533	18465
0.89600	18446
0.89667	18427
0.89733	18408
0.89800	18390
0.89867	18372
0.89933	18354
0.90000	18337
0.90067	18320
0.90133	18303
0.90200	18287
0.90267	18271
0.90333	18255
0.90400	18240
0.90467	18225
0.90533	18210
0.90600	18196
0.90667	18182
0.90733	18168
0.90800	18154
0.90867	18141
0.90933	18128
0.91000	18115
0.91067	18102
0.91133	18089
0.91200	18076
0.91267	18064
0.91333	18051
0.91400	18038
0.91467	18026
0.91533	18013
0.91600	18000
0.91667	17987
0.91733	17974
0.91800	17961
0.91867	17947
0.91933	17934
0.92000	17920
0.92067	17906
0.92133	17892
0.92200	17878
0.92267	17863
0.92333	17848
0.92400	17833
0.92467	17818
0.92533	17803
0.92600	17788
0.92667	17772
0.92733	17756
0.92800	17740
0.92867	17724
0.92933	17708
0.93000	17692
0.93067	17675
0.93133	17659
0.93200	17642
0.93267	17625
0.93333	17608
0.93400	17591
0.93467	17574
0.93533	17557
0.93600	17539
0.93667	17522
0.93733	17504
0.93800	17486
0.93867	17469
0.93933	17451
0.94000	17433
0.94067	17415
0.94133	17397
0.94200	17380
0.94267	17362
0.94333	17344
0.94400	17326
0.94467	17308
0.94533	17290
0.94600	17272
0.94667	17254
0.94733	17236
0.94800	17218
0.94867	17200
0.94933	17182
0.95000	17165
0.95067	17147
0.95133	17129
0.95200	17111
0.95267	17094
0.95333	17076
0.95400	17059
0.95467	17042
0.95533	17025
0.95600	17008
0.95667	16991
0.95733	16974
0.95800	16958
0.95867	16941
0.95933	16925
0.96000	16909
0.96067	16893
0.96133	16878
0.96200	16862
0.96267	16847
0.96333	16831
0.96400	16816
0.96467	16801
0.96533	16787
0.96600	16772
0.96667	16758
0.96733	16743
0.96800	16729
0.96867	16715
0.96933	16701
0.97000	16686
0.97067	16672
0.97133	16658
0.97200	16644
0.97267	16631
0.97333	16617
0.97400	16603
0.97467	16589
0.97533	16575
0.97600	16561
0.97667	16548
0.97733	16534
0.97800	16520
0.97867	16506
0.97933	16492
0.98000	16478
0.98067	16463
0.98133	16449
0.98200	16435
0.98267	16421
0.98333	16407
0.98400	16392
0.98467	16378
0.98533	16364
0.98600	16349
0.98667	16335
0.98733	16320
0.98800	16306
0.98867	16291
0.98933	16277
0.99000	16262
0.99067	16248
0.99133	16233
0.99200	16218
0.99267	16204
0.99333	16189
0.99400	16174
0.99467	16160
0.99533	16145
0.99600	16130
0.99667	16116
0.99733	16101
0.99800	16087
0.99867	16072
0.99933	16058
1.00000	16043
1.00067	16029
1.00133	16015
1.00200	16000
1.00267	15986
1.00333	15972
1.00400	15958
1.00467	15943
1.00533	15929
1.00600	15915
1.00667	15901
1.00733	15887
1.00800	15873
1.00867	15860
1.00933	15846
1.01000	15832
1.01067	15819
1.01133	15805
1.01200	15792
1.01267	15779
1.01333	15766
1.01400	15753
1.01467	15740
1.01533	15727
1.01600	15714
1.01667	15702
1.01733	15689
1.01800	15677
1.01867	15665
1.01933	15653
1.02000	15641
1.02067	15629
1.02133	15618
1.02200	15606
1.02267	15595
1.02333	15583
1.02400	15572
1.02467	15561
1.02533	15550
1.02600	15539
1.02667	15528
1.02733	15518
1.02800	15507
1.02867	15496
1.02933	15486
1.03000	15475
1.03067	15465
1.03133	15455
1.03200	15444
1.03267	15434
1.03333	15424
1.03400	15413
1.03467	15403
1.03533	15393
1.03600	15383
1.03667	15372
1.03733	15362
1.03800	15351
1.03867	15341
1.03933	15331
1.04000	15320
1.04067	15310
1.04133	15299
1.04200	15289
1.04267	15278
1.04333	15267
1.04400	15257
1.04467	15246
1.04533	15236
1.04600	15225
1.04667	15215
1.04733	15204
1.04800	15193
1.04867	15183
1.04933	15172
1.05000	15161
1.05067	15151
1.05133	15140
1.05200	15129
1.05267	15118
1.05333	15108
1.05400	15097
1.05467	15086
1.05533	15075
1.05600	15065
1.05667	15054
1.05733	15043
1.05800	15033
1.05867	15022
1.05933	15011
1.06000	15001
1.06067	14990
1.06133	14980
1.06200	14969
1.06267	14959
1.06333	14948
1.06400	14938
1.06467	14927
1.06533	14917
1.06600	14906
1.06667	14896
1.06733	14885
1.06800	14875
1.06867	14864
1.06933	14854
1.07000	14843
1.07067	14833
1.07133	14823
1.07200	14812
1.07267	14802
1.07333	14792
1.07400	14781
1.07467	14771
1.07533	14761
1.07600	14751
1.07667	14740
1.07733	14730
1.07800	14720
1.07867	14709
1.07933	14699
1.08000	14689
1.08067	14679
1.08133	14669
1.08200	14658
1.08267	14648
1.08333	14638
1.08400	14628
1.08467	14618
1.08533	14608
1.08600	14598
1.08667	14588
1.08733	14578
1.08800	14568
1.08867	14558
1.08933	14548
1.09000	14538
1.09067	14528
1.09133	14518
1.09200	14508
1.09267	14498
1.09333	14488
1.09400	14479
1.09467	14469
1.09533	14459
1.09600	14449
1.09667	14440
1.09733	14430
1.09800	14420
1.09867	14411
1.09933	14401
1.10000	14392
1.10067	14382
1.10133	14373
1.10200	14363
1.10267	14354
1.10333	14345
1.10400	14335
1.10467	14326
1.10533	14316
1.10600	14307
1.10667	14298
1.10733	14288
1.10800	14279
1.10867	14270
1.10933	14261
1.11000	14251
1.11067	14242
1.11133	14233
1.11200	14224
1.11267	14215
1.11333	14206
1.11400	14197
1.11467	14188
1.11533	14179
1.11600	14171
1.11667	14162
1.11733	14153
1.11800	14145
1.11867	14136
1.11933	14128
1.12000	14120
1.12067	14112
1.12133	14104
1.12200	14096
1.12267	14088
1.12333	14081
1.12400	14073
1.12467	14066
1.12533	14059
1.12600	14052
1.12667	14045
1.12733	14039
1.12800	14033
1.12867	14027
1.12933	14021
1.13000	14015
1.13067	14009
1.13133	14004
1.13200	13999
1.13267	13994
1.13333	13989
1.13400	13985
1.13467	13980
1.13533	13976
1.13600	13973
1.13667	13969
1.13733	13966
1.13800	13962
1.13867	13959
1.13933	13956
1.14000	13954
1.14067	13951
1.14133	13948
1.14200	13945
1.14267	13943
1.14333	13940
1.14400	13938
1.14467	13935
1.14533	13933
1.14600	13930
1.14667	13927
1.14733	13925
1.14800	13922
1.14867	13919
1.14933	13916
1.15000	13912
1.15067	13909
1.15133	13906
1.15200	13902
1.15267	13898
1.15333	13894
1.15400	13890
1.15467	13886
1.15533	13881
1.15600	13877
1.15667	13872
1.15733	13867
1.15800	13862
1.15867	13857
1.15933	13852
1.16000	13846
1.16067	13841
1.16133	13835
1.16200	13829
1.16267	13823
1.16333	13817
1.16400	13811
1.16467	13804
1.16533	13798
1.16600	13791
1.16667	13785
1.16733	13778
1.16800	13771
1.16867	13765
1.16933	13758
1.17000	13751
1.17067	13744
1.17133	13736
1.17200	13729
1.17267	13722
1.17333	13715
1.17400	13708
1.17467	13700
1.17533	13693
1.17600	13685
1.17667	13678
1.17733	13670
1.17800	13663
1.17867	13655
1.17933	13648
1.18000	13640
1.18067	13633
1.18133	13625
1.18200	13618
1.18267	13610
1.18333	13602
1.18400	13595
1.18467	13587
1.18533	13580
1.18600	13573
1.18667	13565
1.18733	13558
1.18800	13551
1.18867	13543
1.18933	13536
1.19000	13529
1.19067	13522
1.19133	13515
1.19200	13509
1.19267	13502
1.19333	13495
1.19400	13488
1.19467	13482
1.19533	13475
1.19600	13469
1.19667	13463
1.19733	13456
1.19800	13450
1.19867	13444
1.19933	13438
1.20000	13432
1.20067	13426
1.20133	13420
1.20200	13414
1.20267	13409
1.20333	13403
1.20400	13398
1.20467	13392
1.20533	13387
1.20600	13381
1.20667	13376
1.20733	13371
1.20800	13366
1.20867	13361
1.20933	13356
1.21000	13351
1.21067	13347
1.21133	13342
1.21200	13337
1.21267	13333
1.21333	13328
1.21400	13324
1.21467	13320
1.21533	13315
1.21600	13311
1.21667	13307
1.21733	13303
1.21800	13299
1.21867	13295
1.21933	13291
1.22000	13287
1.22067	13283
1.22133	13279
1.22200	13275
1.22267	13272
1.22333	13268
1.22400	13264
1.22467	13261
1.22533	13257
1.22600	13253
1.22667	13249
1.22733	13246
1.22800	13242
1.22867	13239
1.22933	13235
1.23000	13231
1.23067	13228
1.23133	13224
1.23200	13220
1.23267	13217
1.23333	13213
1.23400	13210
1.23467	13206
1.23533	13203
1.23600	13200
1.23667	13196
1.23733	13193
1.23800	13190
1.23867	13186
1.23933	13183
1.24000	13180
1.24067	13177
1.24133	13174
1.24200	13171
1.24267	13168
1.24333	13165
1.24400	13163
1.24467	13160
1.24533	13157
1.24600	13154
1.24667	13151
1.24733	13149
1.24800	13146
1.24867	13143
1.24933	13141
1.25000	13138
1.25067	13136
1.25133	13133
1.25200	13131
1.25267	13128
1.25333	13126
1.25400	13123
1.25467	13121
1.25533	13119
1.25600	13117
1.25667	13115
1.25733	13112
1.25800	13110
1.25867	13108
1.25933	13107
1.26000	13105
1.26067	13103
1.26133	13101
1.26200	13099
1.26267	13097
1.26333	13096
1.26400	13094
1.26467	13093
1.26533	13091
1.26600	13090
1.26667	13088
1.26733	13087
1.26800	13086
1.26867	13084
1.26933	13083
1.27000	13082
1.27067	13081
1.27133	13080
1.27200	13079
1.27267	13078
1.27333	13077
1.27400	13076
1.27467	13076
1.27533	13075
1.27600	13075
1.27667	13074
1.27733	13074
1.27800	13074
1.27867	13074
1.27933	13074
1.28000	13074
1.28067	13075
1.28133	13075
1.28200	13076
1.28267	13077
1.28333	13077
1.28400	13078
1.28467	13079
1.28533	13080
1.28600	13082
1.28667	13083
1.28733	13084
1.28800	13085
1.28867	13086
1.28933	13088
1.29000	13089
1.29067	13090
1.29133	13091
1.29200	13092
1.29267	13093
1.29333	13094
1.29400	13095
1.29467	13096
1.29533	13096
1.29600	13097
1.29667	13097
1.29733	13097
1.29800	13097
1.29867	13097
1.29933	13097
1.30000	13096
1.30067	13096
1.30133	13095
1.30200	13094
1.30267	13093
1.30333	13092
1.30400	13090
1.30467	13089
1.30533	13087
1.30600	13085
1.30667	13083
1.30733	13081
1.30800	13079
1.30867	13076
1.30933	13074
1.31000	13071
1.31067	13068
1.31133	13065
1.31200	13062
1.31267	13059
1.31333	13056
1.31400	13052
1.31467	13049
1.31533	13045
1.31600	13041
1.31667	13037
1.31733	13033
1.31800	13029
1.31867	13024
1.31933	13020
1.32000	13016
1.32067	13011
1.32133	13006
1.32200	13002
1.32267	12997
1.32333	12992
1.32400	12987
1.32467	12982
1.32533	12976
1.32600	12971
1.32667	12966
1.32733	12960
1.32800	12954
1.32867	12949
1.32933	12943
1.33000	12937
1.33067	12931
1.33133	12924
1.33200	12918
1.33267	12912
1.33333	12905
1.33400	12899
1.33467	12892
1.33533	12885
1.33600	12878
1.33667	12871
1.33733	12864
1.33800	12857
1.33867	12850
1.33933	12843
1.34000	12836
1.34067	12828
1.34133	12821
1.34200	12814
1.34267	12806
1.34333	12799
1.34400	12791
1.34467	12784
1.34533	12776
1.34600	12768
1.34667	12761
1.34733	12753
1.34800	12745
1.34867	12738
1.34933	12730
1.35000	12722
1.35067	12715
1.35133	12707
1.35200	12700
1.35267	12692
1.35333	12685
1.35400	12677
1.35467	12670
1.35533	12662
1.35600	12655
1.35667	12648
1.35733	12640
1.35800	12633
1.35867	12626
1.35933	12619
1.36000	12612
1.36067	12605
1.36133	12598
1.36200	12591
1.36267	12585
1.36333	12578
1.36400	12572
1.36467	12565
1.36533	12559
1.36600	12553
1.36667	12546
1.36733	12540
1.36800	12534
1.36867	12528
1.36933	12522
1.37000	12516
1.37067	12511
1.37133	12505
1.37200	12500
1.37267	12494
1.37333	12489
1.37400	12483
1.37467	12478
1.37533	12473
1.37600	12467
1.37667	12462
1.37733	12457
1.37800	12452
1.37867	12447
1.37933	12442
1.38000	12437
1.38067	12432
1.38133	12427
1.38200	12422
1.38267	12417
1.38333	12413
1.38400	12408
1.38467	12403
1.38533	12398
1.38600	12393
1.38667	12388
1.38733	12384
1.38800	12379
1.38867	12374
1.38933	12370
1.39000	12365
1.39067	12360
1.39133	12356
1.39200	12351
1.39267	12347
1.39333	12342
1.39400	12337
1.39467	12333
1.39533	12328
1.39600	12323
1.39667	12318
1.39733	12313
1.39800	12309
1.39867	12304
1.39933	12299
1.40000	12294
1.40067	12289
1.40133	12285
1.40200	12280
1.40267	12275
1.40333	12271
1.40400	12266
1.40467	12261
1.40533	12256
1.40600	12252
1.40667	12247
1.40733	12242
1.40800	12238
1.40867	12233
1.40933	12229
1.41000	12224
1.41067	12220
1.41133	12215
1.41200	12211
1.41267	12206
1.41333	12202
1.41400	12198
1.41467	12193
1.41533	12189
1.41600	12185
1.41667	12180
1.41733	12176
1.41800	12172
1.41867	12168
1.41933	12164
1.42000	12159
1.42067	12155
1.42133	12151
1.42200	12147
1.42267	12143
1.42333	12139
1.42400	12135
1.42467	12131
1.42533	12127
1.42600	12123
1.42667	12119
1.42733	12115
1.42800	12111
1.42867	12106
1.42933	12102
1.43000	12098
1.43067	12094
1.43133	12090
1.43200	12086
1.43267	12082
1.43333	12078
1.43400	12074
1.43467	12070
1.43533	12066
1.43600	12062
1.43667	12058
1.43733	12054
1.43800	12050
1.43867	12046
1.43933	12042
1.44000	12038
1.44067	12034
1.44133	12030
1.44200	12026
1.44267	12022
1.44333	12018
1.44400	12014
1.44467	12010
1.44533	12006
1.44600	12002
1.44667	11998
1.44733	11994
1.44800	11990
1.44867	11986
1.44933	11982
1.45000	11978
1.45067	11973
1.45133	11969
1.45200	11965
1.45267	11961
1.45333	11957
1.45400	11953
1.45467	11949
1.45533	11945
1.45600	11941
1.45667	11937
1.45733	11933
1.45800	11929
1.45867	11926
1.45933	11922
1.46000	11918
1.46067	11914
1.46133	11910
1.46200	11906
1.46267	11902
1.46333	11898
1.46400	11895
1.46467	11891
1.46533	11887
1.46600	11884
1.46667	11880
1.46733	11876
1.46800	11873
1.46867	11869
1.46933	11865
1.47000	11861
1.47067	11858
1.47133	11854
1.47200	11850
1.47267	11847
1.47333	11843
1.47400	11839
1.47467	11835
1.47533	11832
1.47600	11828
1.47667	11824
1.47733	11821
1.47800	11817
1.47867	11814
1.47933	11810
1.48000	11806
1.48067	11803
1.48133	11799
1.48200	11796
1.48267	11792
1.48333	11789
1.48400	11785
1.48467	11782
1.48533	11778
1.48600	11775
1.48667	11771
1.48733	11767
1.48800	11764
1.48867	11760
1.48933	11756
1.49000	11753
1.49067	11749
1.49133	11745
1.49200	11741
1.49267	11738
1.49333	11734
1.49400	11730
1.49467	11726
1.49533	11722
1.49600	11718
1.49667	11714
1.49733	11710
1.49800	11707
1.49867	11703
1.49933	11699
1.50000	11695
1.50067	11691
1.50133	11687
1.50200	11683
1.50267	11679
1.50333	11676
1.50400	11672
1.50467	11668
1.50533	11664
1.50600	11660
1.50667	11656
1.50733	11652
1.50800	11648
1.50867	11644
1.50933	11640
1.51000	11636
1.51067	11632
1.51133	11628
1.51200	11624
1.51267	11620
1.51333	11616
1.51400	11613
1.51467	11609
1.51533	11605
1.51600	11601
1.51667	11597
1.51733	11593
1.51800	11589
1.51867	11585
1.51933	11581
1.52000	11578
1.52067	11574
1.52133	11570
1.52200	11566
1.52267	11563
1.52333	11559
1.52400	11556
1.52467	11552
1.52533	11549
1.52600	11545
1.52667	11542
1.52733	11539
1.52800	11535
1.52867	11532
1.52933	11529
1.53000	11526
1.53067	11523
1.53133	11520
1.53200	11516
1.53267	11513
1.53333	11510
1.53400	11507
1.53467	11504
1.53533	11501
1.53600	11498
1.53667	11495
1.53733	11492
1.53800	11489
1.53867	11486
1.53933	11483
1.54000	11480
1.54067	11477
1.54133	11474
1.54200	11471
1.54267	11468
1.54333	11465
1.54400	11462
1.54467	11459
1.54533	11456
1.54600	11453
1.54667	11450
1.54733	11447
1.54800	11444
1.54867	11441
1.54933	11438
1.55000	11435
1.55067	11432
1.55133	11429
1.55200	11426
1.55267	11423
1.55333	11419
1.55400	11416
1.55467	11413
1.55533	11410
1.55600	11407
1.55667	11404
1.55733	11401
1.55800	11398
1.55867	11395
1.55933	11392
1.56000	11389
1.56067	11386
1.56133	11383
1.56200	11380
1.56267	11377
1.56333	11374
1.56400	11371
1.56467	11368
1.56533	11365
1.56600	11362
1.56667	11359
1.56733	11357
1.56800	11354
1.56867	11351
1.56933	11348
1.57000	11345
1.57067	11343
1.57133	11340
1.57200	11338
1.57267	11335
1.57333	11333
1.57400	11330
1.57467	11328
1.57533	11326
1.57600	11323
1.57667	11321
1.57733	11319
1.57800	11316
1.57867	11314
1.57933	11312
1.58000	11309
1.58067	11307
1.58133	11305
1.58200	11303
1.58267	11300
1.58333	11298
1.58400	11296
1.58467	11293
1.58533	11291
1.58600	11289
1.58667	11287
1.58733	11285
1.58800	11283
1.58867	11280
1.58933	11278
1.59000	11276
1.59067	11274
1.59133	11272
1.59200	11269
1.59267	11267
1.59333	11265
1.59400	11263
1.59467	11260
1.59533	11258
1.59600	11255
1.59667	11253
1.59733	11251
1.59800	11248
1.59867	11246
1.59933	11243
1.60000	11241
1.60067	11238
1.60133	11236
1.60200	11233
1.60267	11230
1.60333	11228
1.60400	11225
1.60467	11223
1.60533	11220
1.60600	11217
1.60667	11215
1.60733	11212
1.60800	11210
1.60867	11207
1.60933	11205
1.61000	11202
1.61067	11200
1.61133	11197
1.61200	11195
1.61267	11192
1.61333	11190
1.61400	11187
1.61467	11185
1.61533	11183
1.61600	11180
1.61667	11178
1.61733	11176
1.61800	11174
1.61867	11171
1.61933	11169
1.62000	11167
1.62067	11164
1.62133	11162
1.62200	11160
1.62267	11157
1.62333	11155
1.62400	11153
1.62467	11150
1.62533	11148
1.62600	11146
1.62667	11144
1.62733	11142
1.62800	11140
1.62867	11138
1.62933	11135
1.63000	11133
1.63067	11131
1.63133	11129
1.63200	11127
1.63267	11125
1.63333	11123
1.63400	11121
1.63467	11119
1.63533	11117
1.63600	11115
1.63667	11113
1.63733	11111
1.63800	11109
1.63867	11107
1.63933	11105
1.64000	11103
1.64067	11102
1.64133	11100
1.64200	11098
1.64267	11096
1.64333	11094
1.64400	11093
1.64467	11091
1.64533	11089
1.64600	11087
1.64667	11086
1.64733	11084
1.64800	11083
1.64867	11081
1.64933	11079
1.65000	11078
1.65067	11076
1.65133	11075
1.65200	11073
1.65267	11072
1.65333	11071
1.65400	11069
1.65467	11068
1.65533	11066
1.65600	11065
1.65667	11063
1.65733	11062
1.65800	11061
1.65867	11059
1.65933	11058
1.66000	11056
1.66067	11055
1.66133	11053
1.66200	11052
1.66267	11050
1.66333	11048
1.66400	11047
1.66467	11045
1.66533	11043
1.66600	11041
1.66667	11039
1.66733	11037
1.66800	11035
1.66867	11033
1.66933	11031
1.67000	11029
1.67067	11026
1.67133	11024
1.67200	11022
1.67267	11020
1.67333	11018
1.67400	11015
1.67467	11013
1.67533	11011
1.67600	11008
1.67667	11006
1.67733	11003
1.67800	11001
1.67867	10999
1.67933	10996
1.68000	10994
1.68067	10991
1.68133	10989
1.68200	10987
1.68267	10984
1.68333	10982
1.68400	10979
1.68467	10977
1.68533	10974
1.68600	10972
1.68667	10969
1.68733	10966
1.68800	10964
1.68867	10961
1.68933	10958
1.69000	10956
1.69067	10953
1.69133	10950
1.69200	10947
1.69267	10945
1.69333	10942
1.69400	10939
1.69467	10937
1.69533	10934
1.69600	10931
1.69667	10928
1.69733	10925
1.69800	10922
1.69867	10920
1.69933	10917
1.70000	10914
1.70067	10911
1.70133	10908
1.70200	10906
1.70267	10903
1.70333	10900
1.70400	10897
1.70467	10895
1.70533	10892
1.70600	10889
1.70667	10886
1.70733	10884
1.70800	10881
1.70867	10879
1.70933	10876
1.71000	10874
1.71067	10871
1.71133	10869
1.71200	10866
1.71267	10864
1.71333	10862
1.71400	10860
1.71467	10859
1.71533	10858
1.71600	10857
1.71667	10856
1.71733	10856
1.71800	10857
1.71867	10858
1.71933	10861
1.72000	10864
1.72067	10870
1.72133	10877
1.72200	10887
1.72267	10899
1.72333	10915
1.72400	10936
1.72467	10961
1.72533	10992
1.72600	11031
1.72667	11079
1.72733	11136
1.72800	11206
1.72867	11289
1.72933	11389
1.73000	11508
1.73067	11648
1.73133	11813
1.73200	12008
1.73267	12235
1.73333	12499
1.73400	12806
1.73467	13162
1.73533	13572
1.73600	14043
1.73667	14583
1.73733	15200
1.73800	15902
1.73867	16698
1.73933	17596
1.74000	18607
1.74067	19741
1.74133	21007
1.74200	22416
1.74267	23978
1.74333	25703
1.74400	27602
1.74467	29687
1.74533	31967
1.74600	34456
1.74667	37163
1.74733	40098
1.74800	43272
1.74867	46692
1.74933	50368
1.75000	54303
1.75067	58504
1.75133	62972
1.75200	67707
1.75267	72710
1.75333	77979
1.75400	83512
1.75467	89303
1.75533	95347
1.75600	101635
1.75667	108155
1.75733	114892
1.75800	121833
1.75867	128961
1.75933	136258
1.76000	143703
1.76067	151273
1.76133	158945
1.76200	166694
1.76267	174493
1.76333	182312
1.76400	190122
1.76467	197894
1.76533	205599
1.76600	213207
1.76667	220685
1.76733	227999
1.76800	235117
1.76867	242007
1.76933	248642
1.77000	254995
1.77067	261042
1.77133	266761
1.77200	272134
1.77267	277144
1.77333	281778
1.77400	286027
1.77467	289882
1.77533	293340
1.77600	296396
1.77667	299054
1.77733	301316
1.77800	303186
1.77867	304674
1.77933	305786
1.78000	306534
1.78067	306929
1.78133	306984
1.78200	306712
1.78267	306128
1.78333	305248
1.78400	304085
1.78467	302655
1.78533	300975
1.78600	299058
1.78667	296921
1.78733	294577
1.78800	292043
1.78867	289333
1.78933	286459
1.79000	283437
1.79067	280279
1.79133	276998
1.79200	273606
1.79267	270114
1.79333	266532
1.79400	262872
1.79467	259144
1.79533	255356
1.79600	251517
1.79667	247636
1.79733	243721
1.79800	239779
1.79867	235816
1.79933	231840
1.80000	227856
1.80067	223870
1.80133	219887
1.80200	215913
1.80267	211951
1.80333	208006
1.80400	204082
1.80467	200183
1.80533	196311
1.80600	192470
1.80667	188663
1.80733	184892
1.80800	181160
1.80867	177469
1.80933	173820
1.81000	170216
1.81067	166658
1.81133	163147
1.81200	159685
1.81267	156273
1.81333	152911
1.81400	149601
1.81467	146343
1.81533	143138
1.81600	139986
1.81667	136888
1.81733	133843
1.81800	130853
1.81867	127917
1.81933	125035
1.82000	122207
1.82067	119433
1.82133	116713
1.82200	114047
1.82267	111434
1.82333	108875
1.82400	106367
1.82467	103912
1.82533	101509
1.82600	99157
1.82667	96856
1.82733	94605
1.82800	92403
1.82867	90251
1.82933	88146
1.83000	86090
1.83067	84080
1.83133	82117
1.83200	80200
1.83267	78327
1.83333	76499
1.83400	74714
1.83467	72971
1.83533	71271
1.83600	69613
1.83667	67994
1.83733	66416
1.83800	64876
1.83867	63375
1.83933	61912
1.84000	60485
1.84067	59094
1.84133	57739
1.84200	56419
1.84267	55132
1.84333	53879
1.84400	52658
1.84467	51469
1.84533	50311
1.84600	49184
1.84667	48086
1.84733	47018
1.84800	45978
1.84867	44966
1.84933	43981
1.85000	43023
1.85067	42091
1.85133	41184
1.85200	40301
1.85267	39443
1.85333	38609
1.85400	37797
1.85467	37008
1.85533	36240
1.85600	35494
1.85667	34769
1.85733	34064
1.85800	33378
1.85867	32712
1.85933	32065
1.86000	31435
1.86067	30824
1.86133	30229
1.86200	29652
1.86267	29090
1.86333	28545
1.86400	28015
1.86467	27501
1.86533	27000
1.86600	26515
1.86667	26043
1.86733	25584
1.86800	25139
1.86867	24706
1.86933	24285
1.87000	23877
1.87067	23480
1.87133	23095
1.87200	22721
1.87267	22358
1.87333	22005
1.87400	21662
1.87467	21329
1.87533	21005
1.87600	20691
1.87667	20386
1.87733	20090
1.87800	19802
1.87867	19523
1.87933	19252
1.88000	18988
1.88067	18733
1.88133	18484
1.88200	18243
1.88267	18009
1.88333	17782
1.88400	17561
1.88467	17347
1.88533	17139
1.88600	16937
1.88667	16741
1.88733	16551
1.88800	16367
1.88867	16187
1.88933	16014
1.89000	15845
1.89067	15681
1.89133	15522
1.89200	15368
1.89267	15218
1.89333	15072
1.89400	14931
1.89467	14794
1.89533	14661
1.89600	14532
1.89667	14407
1.89733	14285
1.89800	14167
1.89867	14052
1.89933	13941
1.90000	13833
1.90067	13728
1.90133	13626
1.90200	13527
1.90267	13431
1.90333	13338
1.90400	13247
1.90467	13159
1.90533	13073
1.90600	12990
1.90667	12910
1.90733	12831
1.90800	12755
1.90867	12681
1.90933	12609
1.91000	12539
1.91067	12471
1.91133	12405
1.91200	12341
1.91267	12279
1.91333	12218
1.91400	12159
1.91467	12101
1.91533	12046
1.91600	11991
1.91667	11938
1.91733	11886
1.91800	11836
1.91867	11787
1.91933	11739
1.92000	11693
1.92067	11647
1.92133	11603
1.92200	11560
1.92267	11518
1.92333	11477
1.92400	11437
1.92467	11397
1.92533	11359
1.92600	11322
1.92667	11285
1.92733	11249
1.92800	11214
1.92867	11180
1.92933	11147
1.93000	11114
1.93067	11082
1.93133	11050
1.93200	11020
1.93267	10989
1.93333	10960
1.93400	10931
1.93467	10903
1.93533	10875
1.93600	10848
1.93667	10821
1.93733	10795
1.93800	10769
1.93867	10744
1.93933	10720
1.94000	10696
1.94067	10673
1.94133	10650
1.94200	10627
1.94267	10605
1.94333	10584
1.94400	10563
1.94467	10542
1.94533	10522
1.94600	10502
1.94667	10483
1.94733	10464
1.94800	10445
1.94867	10427
1.94933	10409
1.95000	10392
1.95067	10375
1.95133	10359
1.95200	10343
1.95267	10327
1.95333	10311
1.95400	10296
1.95467	10281
1.95533	10267
1.95600	10253
1.95667	10239
1.95733	10225
1.95800	10212
1.95867	10199
1.95933	10186
1.96000	10174
1.96067	10162
1.96133	10150
1.96200	10138
1.96267	10127
1.96333	10115
1.96400	10104
1.96467	10094
1.96533	10083
1.96600	10072
1.96667	10062
1.96733	10052
1.96800	10042
1.96867	10032
1.96933	10022
1.97000	10013
1.97067	10004
1.97133	9995
1.97200	9986
1.97267	9977
1.97333	9968
1.97400	9959
1.97467	9951
1.97533	9943
1.97600	9935
1.97667	9927
1.97733	9919
1.97800	9911
1.97867	9903
1.97933	9896
1.98000	9888
1.98067	9881
1.98133	9874
1.98200	9867
1.98267	9860
1.98333	9853
1.98400	9846
1.98467	9839
1.98533	9832
1.98600	9826
1.98667	9819
1.98733	9813
1.98800	9806
1.98867	9800
1.98933	9794
1.99000	9788
1.99067	9782
1.99133	9776
1.99200	9770
1.99267	9764
1.99333	9758
1.99400	9752
1.99467	9747
1.99533	9741
1.99600	9736
1.99667	9730
1.99733	9725
1.99800	9719
1.99867	9714
1.99933	9709
2.00000	9703
2.00067	9698
2.00133	9693
2.00200	9687
2.00267	9682
2.00333	9677
2.00400	9672
2.00467	9666
2.00533	9661
2.00600	9656
2.00667	9651
2.00733	9646
2.00800	9640
2.00867	9635
2.00933	9630
2.01000	9624
2.01067	9619
2.01133	9614
2.01200	9608
2.01267	9603
2.01333	9598
2.01400	9592
2.01467	9587
2.01533	9582
2.01600	9576
2.01667	9571
2.01733	9566
2.01800	9560
2.01867	9555
2.01933	9550
2.02000	9544
2.02067	9539
2.02133	9534
2.02200	9529
2.02267	9524
2.02333	9519
2.02400	9513
2.02467	9508
2.02533	9503
2.02600	9498
2.02667	9493
2.02733	9489
2.02800	9484
2.02867	9479
2.02933	9474
2.03000	9470
2.03067	9465
2.03133	9461
2.03200	9456
2.03267	9452
2.03333	9447
2.03400	9443
2.03467	9438
2.03533	9434
2.03600	9429
2.03667	9425
2.03733	9421
2.03800	9417
2.03867	9412
2.03933	9408
2.04000	9404
2.04067	9399
2.04133	9395
2.04200	9391
2.04267	9387
2.04333	9382
2.04400	9378
2.04467	9374
2.04533	9370
2.04600	9366
2.04667	9362
2.04733	9358
2.04800	9354
2.04867	9350
2.04933	9346
2.05000	9342
2.05067	9338
2.05133	9335
2.05200	9331
2.05267	9327
2.05333	9323
2.05400	9320
2.05467	9316
2.05533	9312
2.05600	9309
2.05667	9305
2.05733	9302
2.05800	9298
2.05867	9294
2.05933	9291
2.06000	9287
2.06067	9284
2.06133	9280
2.06200	9277
2.06267	9273
2.06333	9270
2.06400	9266
2.06467	9262
2.06533	9259
2.06600	9255
2.06667	9252
2.06733	9248
2.06800	9244
2.06867	9241
2.06933	9237
2.07000	9234
2.07067	9230
2.07133	9226
2.07200	9223
2.07267	9219
2.07333	9215
2.07400	9212
2.07467	9208
2.07533	9205
2.07600	9201
2.07667	9197
2.07733	9194
2.07800	9190
2.07867	9187
2.07933	9183
2.08000	9180
2.08067	9177
2.08133	9173
2.08200	9170
2.08267	9166
2.08333	9163
2.08400	9160
2.08467	9156
2.08533	9153
2.08600	9150
2.08667	9146
2.08733	9143
2.08800	9139
2.08867	9136
2.08933	9132
2.09000	9129
2.09067	9125
2.09133	9122
2.09200	9118
2.09267	9115
2.09333	9111
2.09400	9108
2.09467	9104
2.09533	9100
2.09600	9097
2.09667	9093
2.09733	9090
2.09800	9086
2.09867	9083
2.09933	9079
2.10000	9076
2.10067	9072
2.10133	9069
2.10200	9066
2.10267	9062
2.10333	9059
2.10400	9055
2.10467	9052
2.10533	9048
2.10600	9045
2.10667	9042
2.10733	9038
2.10800	9035
2.10867	9031
2.10933	9028
2.11000	9025
2.11067	9021
2.11133	9018
2.11200	9015
2.11267	9011
2.11333	9008
2.11400	9005
2.11467	9001
2.11533	8998
2.11600	8995
2.11667	8992
2.11733	8988
2.11800	8985
2.11867	8982
2.11933	8979
2.12000	8975
2.12067	8972
2.12133	8969
2.12200	8966
2.12267	8962
2.12333	8959
2.12400	8956
2.12467	8952
2.12533	8949
2.12600	8946
2.12667	8943
2.12733	8939
2.12800	8936
2.12867	8933
2.12933	8929
2.13000	8926
2.13067	8923
2.13133	8920
2.13200	8916
2.13267	8913
2.13333	8910
2.13400	8907
2.13467	8903
2.13533	8900
2.13600	8897
2.13667	8894
2.13733	8891
2.13800	8887
2.13867	8884
2.13933	8881
2.14000	8878
2.14067	8875
2.14133	8872
2.14200	8870
2.14267	8867
2.14333	8864
2.14400	8861
2.14467	8859
2.14533	8856
2.14600	8853
2.14667	8851
2.14733	8848
2.14800	8846
2.14867	8844
2.14933	8841
2.15000	8839
2.15067	8837
2.15133	8835
2.15200	8832
2.15267	8830
2.15333	8828
2.15400	8826
2.15467	8824
2.15533	8823
2.15600	8821
2.15667	8819
2.15733	8818
2.15800	8816
2.15867	8814
2.15933	8813
2.16000	8811
2.16067	8810
2.16133	8809
2.16200	8807
2.16267	8806
2.16333	8805
2.16400	8804
2.16467	8802
2.16533	8801
2.16600	8800
2.16667	8799
2.16733	8798
2.16800	8797
2.16867	8795
2.16933	8794
2.17000	8793
2.17067	8791
2.17133	8790
2.17200	8789
2.17267	8787
2.17333	8786
2.17400	8784
2.17467	8783
2.17533	8781
2.17600	8779
2.17667	8777
2.17733	8776
2.17800	8774
2.17867	8772
2.17933	8770
2.18000	8767
2.18067	8765
2.18133	8763
2.18200	8761
2.18267	8758
2.18333	8756
2.18400	8753
2.18467	8750
2.18533	8747
2.18600	8745
2.18667	8742
2.18733	8739
2.18800	8736
2.18867	8732
2.18933	8729
2.19000	8726
2.19067	8723
2.19133	8720
2.19200	8716
2.19267	8713
2.19333	8710
2.19400	8706
2.19467	8703
2.19533	8699
2.19600	8696
2.19667	8692
2.19733	8688
2.19800	8685
2.19867	8681
2.19933	8678
2.20000	8674
2.20067	8671
2.20133	8667
2.20200	8664
2.20267	8660
2.20333	8657
2.20400	8653
2.20467	8650
2.20533	8647
2.20600	8644
2.20667	8640
2.20733	8637
2.20800	8634
2.20867	8631
2.20933	8628
2.21000	8625
2.21067	8622
2.21133	8619
2.21200	8617
2.21267	8614
2.21333	8611
2.21400	8609
2.21467	8606
2.21533	8604
2.21600	8601
2.21667	8599
2.21733	8597
2.21800	8595
2.21867	8592
2.21933	8590
2.22000	8588
2.22067	8586
2.22133	8584
2.22200	8582
2.22267	8580
2.22333	8578
2.22400	8576
2.22467	8574
2.22533	8572
2.22600	8570
2.22667	8568
2.22733	8566
2.22800	8564
2.22867	8562
2.22933	8560
2.23000	8558
2.23067	8556
2.23133	8554
2.23200	8552
2.23267	8550
2.23333	8548
2.23400	8546
2.23467	8544
2.23533	8542
2.23600	8541
2.23667	8539
2.23733	8537
2.23800	8536
2.23867	8534
2.23933	8532
2.24000	8531
2.24067	8529
2.24133	8528
2.24200	8526
2.24267	8525
2.24333	8523
2.24400	8522
2.24467	8521
2.24533	8519
2.24600	8518
2.24667	8517
2.24733	8516
2.24800	8514
2.24867	8513
2.24933	8512
2.25000	8511
2.25067	8510
2.25133	8509
2.25200	8508
2.25267	8506
2.25333	8505
2.25400	8504
2.25467	8503
2.25533	8502
2.25600	8501
2.25667	8499
2.25733	8498
2.25800	8497
2.25867	8495
2.25933	8494
2.26000	8492
2.26067	8491
2.26133	8489
2.26200	8488
2.26267	8486
2.26333	8484
2.26400	8482
2.26467	8480
2.26533	8478
2.26600	8476
2.26667	8474
2.26733	8472
2.26800	8470
2.26867	8468
2.26933	8466
2.27000	8464
2.27067	8461
2.27133	8459
2.27200	8457
2.27267	8454
2.27333	8452
2.27400	8449
2.27467	8447
2.27533	8444
2.27600	8442
2.27667	8439
2.27733	8437
2.27800	8434
2.27867	8431
2.27933	8428
2.28000	8426
2.28067	8423
2.28133	8420
2.28200	8417
2.28267	8415
2.28333	8412
2.28400	8409
2.28467	8406
2.28533	8403
2.28600	8400
2.28667	8397
2.28733	8395
2.28800	8392
2.28867	8389
2.28933	8386
2.29000	8383
2.29067	8381
2.29133	8378
2.29200	8375
2.29267	8373
2.29333	8370
2.29400	8367
2.29467	8365
2.29533	8362
2.29600	8360
2.29667	8357
2.29733	8355
2.29800	8352
2.29867	8350
2.29933	8347
2.30000	8345
2.30067	8342
2.30133	8340
2.30200	8337
2.30267	8335
2.30333	8332
2.30400	8330
2.30467	8327
2.30533	8325
2.30600	8323
2.30667	8320
2.30733	8318
2.30800	8316
2.30867	8314
2.30933	8311
2.31000	8309
2.31067	8307
2.31133	8305
2.31200	8303
2.31267	8301
2.31333	8299
2.31400	8297
2.31467	8295
2.31533	8293
2.31600	8291
2.31667	8289
2.31733	8287
2.31800	8285
2.31867	8283
2.31933	8282
2.32000	8280
2.32067	8278
2.32133	8276
2.32200	8274
2.32267	8273
2.32333	8271
2.32400	8269
2.32467	8267
2.32533	8266
2.32600	8264
2.32667	8263
2.32733	8261
2.32800	8260
2.32867	8258
2.32933	8257
2.33000	8255
2.33067	8254
2.33133	8252
2.33200	8251
2.33267	8249
2.33333	8248
2.33400	8247
2.33467	8245
2.33533	8244
2.33600	8243
2.33667	8241
2.33733	8240
2.33800	8239
2.33867	8237
2.33933	8236
2.34000	8235
2.34067	8233
2.34133	8232
2.34200	8231
2.34267	8230
2.34333	8228
2.34400	8227
2.34467	8226
2.34533	8225
2.34600	8224
2.34667	8223
2.34733	8221
2.34800	8220
2.34867	8219
2.34933	8218
2.35000	8217
2.35067	8216
2.35133	8215
2.35200	8214
2.35267	8213
2.35333	8212
2.35400	8211
2.35467	8210
2.35533	8209
2.35600	8208
2.35667	8207
2.35733	8206
2.35800	8205
2.35867	8205
2.35933	8204
2.36000	8203
2.36067	8202
2.36133	8201
2.36200	8201
2.36267	8200
2.36333	8199
2.36400	8199
2.36467	8198
2.36533	8197
2.36600	8197
2.36667	8196
2.36733	8196
2.36800	8195
2.36867	8195
2.36933	8195
2.37000	8194
2.37067	8194
2.37133	8193
2.37200	8193
2.37267	8192
2.37333	8192
2.37400	8191
2.37467	8191
2.37533	8190
2.37600	8190
2.37667	8189
2.37733	8189
2.37800	8189
2.37867	8188
2.37933	8188
2.38000	8187
2.38067	8187
2.38133	8186
2.38200	8186
2.38267	8185
2.38333	8184
2.38400	8184
2.38467	8183
2.38533	8183
2.38600	8182
2.38667	8181
2.38733	8181
2.38800	8180
2.38867	8179
2.38933	8179
2.39000	8178
2.39067	8177
2.39133	8177
2.39200	8176
2.39267	8175
2.39333	8174
2.39400	8173
2.39467	8172
2.39533	8171
2.39600	8170
2.39667	8169
2.39733	8167
2.39800	8166
2.39867	8165
2.39933	8163
2.40000	8162
2.40067	8160
2.40133	8159
2.40200	8157
2.40267	8156
2.40333	8154
2.40400	8152
2.40467	8151
2.40533	8149
2.40600	8147
2.40667	8146
2.40733	8144
2.40800	8142
2.40867	8140
2.40933	8139
2.41000	8137
2.41067	8135
2.41133	8133
2.41200	8131
2.41267	8130
2.41333	8128
2.41400	8126
2.41467	8124
2.41533	8122
2.41600	8120
2.41667	8118
2.41733	8116
2.41800	8114
2.41867	8112
2.41933	8110
2.42000	8108
2.42067	8106
2.42133	8104
2.42200	8102
2.42267	8100
2.42333	8098
2.42400	8095
2.42467	8093
2.42533	8091
2.42600	8089
2.42667	8086
2.42733	8084
2.42800	8082
2.42867	8079
2.42933	8077
2.43000	8074
2.43067	8071
2.43133	8069
2.43200	8066
2.43267	8063
2.43333	8060
2.43400	8057
2.43467	8054
2.43533	8051
2.43600	8048
2.43667	8046
2.43733	8043
2.43800	8040
2.43867	8036
2.43933	8033
2.44000	8030
2.44067	8027
2.44133	8024
2.44200	8021
2.44267	8018
2.44333	8015
2.44400	8012
2.44467	8008
2.44533	8005
2.44600	8002
2.44667	7999
2.44733	7995
2.44800	7992
2.44867	7989
2.44933	7986
2.45000	7982
2.45067	7979
2.45133	7976
2.45200	7972
2.45267	7969
2.45333	7966
2.45400	7962
2.45467	7959
2.45533	7956
2.45600	7952
2.45667	7949
2.45733	7945
2.45800	7942
2.45867	7939
2.45933	7935
2.46000	7932
2.46067	7929
2.46133	7925
2.46200	7922
2.46267	7919
2.46333	7915
2.46400	7912
2.46467	7909
2.46533	7906
2.46600	7903
2.46667	7899
2.46733	7896
2.46800	7893
2.46867	7890
2.46933	7887
2.47000	7884
2.47067	7880
2.47133	7877
2.47200	7874
2.47267	7871
2.47333	7868
2.47400	7864
2.47467	7861
2.47533	7858
2.47600	7855
2.47667	7852
2.47733	7848
2.47800	7845
2.47867	7842
2.47933	7839
2.48000	7836
2.48067	7832
2.48133	7829
2.48200	7826
2.48267	7823
2.48333	7820
2.48400	7817
2.48467	7813
2.48533	7810
2.48600	7807
2.48667	7804
2.48733	7801
2.48800	7798
2.48867	7795
2.48933	7791
2.49000	7788
2.49067	7785
2.49133	7782
2.49200	7779
2.49267	7776
2.49333	7773
2.49400	7770
2.49467	7767
2.49533	7763
2.49600	7760
2.49667	7757
2.49733	7754
2.49800	7751
2.49867	7748
2.49933	7745
2.50000	7741
2.50067	7738
2.50133	7735
2.50200	7732
2.50267	7729
2.50333	7726
2.50400	7723
2.50467	7720
2.50533	7717
2.50600	7714
2.50667	7711
2.50733	7708
2.50800	7705
2.50867	7702
2.50933	7699
2.51000	7697
2.51067	7694
2.51133	7691
2.51200	7688
2.51267	7685
2.51333	7682
2.51400	7679
2.51467	7676
2.51533	7673
2.51600	7670
2.51667	7667
2.51733	7665
2.51800	7662
2.51867	7659
2.51933	7656
2.52000	7653
2.52067	7650
2.52133	7647
2.52200	7645
2.52267	7642
2.52333	7639
2.52400	7636
2.52467	7633
2.52533	7630
2.52600	7627
2.52667	7625
2.52733	7622
2.52800	7619
2.52867	7616
2.52933	7613
2.53000	7611
2.53067	7608
2.53133	7605
2.53200	7602
2.53267	7599
2.53333	7597
2.53400	7594
2.53467	7591
2.53533	7588
2.53600	7585
2.53667	7582
2.53733	7579
2.53800	7577
2.53867	7574
2.53933	7571
2.54000	7568
2.54067	7565
2.54133	7563
2.54200	7560
2.54267	7557
2.54333	7555
2.54400	7552
2.54467	7549
2.54533	7546
2.54600	7544
2.54667	7541
2.54733	7539
2.54800	7536
2.54867	7533
2.54933	7531
2.55000	7528
2.55067	7525
2.55133	7523
2.55200	7520
2.55267	7517
2.55333	7515
2.55400	7512
2.55467	7509
2.55533	7507
2.55600	7504
2.55667	7501
2.55733	7499
2.55800	7496
2.55867	7494
2.55933	7491
2.56000	7488
2.56067	7486
2.56133	7483
2.56200	7481
2.56267	7478
2.56333	7476
2.56400	7473
2.56467	7471
2.56533	7469
2.56600	7466
2.56667	7464
2.56733	7462
2.56800	7460
2.56867	7457
2.56933	7455
2.57000	7453
2.57067	7451
2.57133	7448
2.57200	7446
2.57267	7444
2.57333	7442
2.57400	7440
2.57467	7438
2.57533	7435
2.57600	7433
2.57667	7431
2.57733	7429
2.57800	7427
2.57867	7425
2.57933	7422
2.58000	7420
2.58067	7418
2.58133	7416
2.58200	7414
2.58267	7412
2.58333	7410
2.58400	7408
2.58467	7406
2.58533	7404
2.58600	7402
2.58667	7400
2.58733	7398
2.58800	7396
2.58867	7395
2.58933	7393
2.59000	7391
2.59067	7389
2.59133	7388
2.59200	7386
2.59267	7384
2.59333	7382
2.59400	7381
2.59467	7379
2.59533	7377
2.59600	7376
2.59667	7374
2.59733	7372
2.59800	7371
2.59867	7369
2.59933	7368
2.60000	7366
2.60067	7365
2.60133	7363
2.60200	7362
2.60267	7360
2.60333	7359
2.60400	7357
2.60467	7356
2.60533	7354
2.60600	7353
2.60667	7351
2.60733	7350
2.60800	7348
2.60867	7347
2.60933	7345
2.61000	7343
2.61067	7342
2.61133	7340
2.61200	7338
2.61267	7337
2.61333	7335
2.61400	7333
2.61467	7332
2.61533	7330
2.61600	7328
2.61667	7326
2.61733	7324
2.61800	7322
2.61867	7320
2.61933	7318
2.62000	7317
2.62067	7315
2.62133	7313
2.62200	7311
2.62267	7309
2.62333	7307
2.62400	7305
2.62467	7303
2.62533	7301
2.62600	7299
2.62667	7296
2.62733	7294
2.62800	7292
2.62867	7290
2.62933	7288
2.63000	7286
2.63067	7283
2.63133	7281
2.63200	7279
2.63267	7277
2.63333	7275
2.63400	7272
2.63467	7270
2.63533	7268
2.63600	7266
2.63667	7263
2.63733	7261
2.63800	7259
2.63867	7257
2.63933	7254
2.64000	7252
2.64067	7250
2.64133	7248
2.64200	7245
2.64267	7243
2.64333	7241
2.64400	7238
2.64467	7236
2.64533	7234
2.64600	7231
2.64667	7229
2.64733	7227
2.64800	7224
2.64867	7222
2.64933	7219
2.65000	7217
2.65067	7215
2.65133	7212
2.65200	7210
2.65267	7207
2.65333	7205
2.65400	7203
2.65467	7200
2.65533	7198
2.65600	7195
2.65667	7193
2.65733	7190
2.65800	7188
2.65867	7185
2.65933	7183
2.66000	7180
2.66067	7178
2.66133	7175
2.66200	7173
2.66267	7170
2.66333	7168
2.66400	7165
2.66467	7162
2.66533	7160
2.66600	7157
2.66667	7155
2.66733	7152
2.66800	7150
2.66867	7147
2.66933	7145
2.67000	7142
2.67067	7140
2.67133	7137
2.67200	7135
2.67267	7132
2.67333	7129
2.67400	7127
2.67467	7124
2.67533	7122
2.67600	7119
2.67667	7117
2.67733	7114
2.67800	7112
2.67867	7109
2.67933	7107
2.68000	7104
2.68067	7101
2.68133	7099
2.68200	7096
2.68267	7094
2.68333	7091
2.68400	7089
2.68467	7086
2.68533	7084
2.68600	7081
2.68667	7079
2.68733	7076
2.68800	7073
2.68867	7071
2.68933	7068
2.69000	7066
2.69067	7064
2.69133	7061
2.69200	7059
2.69267	7056
2.69333	7054
2.69400	7052
2.69467	7049
2.69533	7047
2.69600	7044
2.69667	7042
2.69733	7040
2.69800	7037
2.69867	7035
2.69933	7033
2.70000	7031
2.70067	7028
2.70133	7026
2.70200	7024
2.70267	7022
2.70333	7019
2.70400	7017
2.70467	7015
2.70533	7013
2.70600	7011
2.70667	7009
2.70733	7007
2.70800	7005
2.70867	7003
2.70933	7001
2.71000	6999
2.71067	6997
2.71133	6995
2.71200	6993
2.71267	6991
2.71333	6989
2.71400	6987
2.71467	6985
2.71533	6983
2.71600	6981
2.71667	6979
2.71733	6977
2.71800	6976
2.71867	6974
2.71933	6972
2.72000	6970
2.72067	6968
2.72133	6966
2.72200	6964
2.72267	6963
2.72333	6961
2.72400	6959
2.72467	6957
2.72533	6956
2.72600	6954
2.72667	6952
2.72733	6951
2.72800	6949
2.72867	6947
2.72933	6946
2.73000	6944
2.73067	6943
2.73133	6941
2.73200	6940
2.73267	6938
2.73333	6937
2.73400	6935
2.73467	6934
2.73533	6932
2.73600	6931
2.73667	6930
2.73733	6928
2.73800	6927
2.73867	6926
2.73933	6924
2.74000	6923
2.74067	6922
2.74133	6921
2.74200	6919
2.74267	6918
2.74333	6917
2.74400	6916
2.74467	6915
2.74533	6913
2.74600	6912
2.74667	6911
2.74733	6910
2.74800	6909
2.74867	6908
2.74933	6907
2.75000	6906
2.75067	6905
2.75133	6904
2.75200	6903
2.75267	6902
2.75333	6901
2.75400	6900
2.75467	6900
2.75533	6899
2.75600	6898
2.75667	6897
2.75733	6896
2.75800	6895
2.75867	6895
2.75933	6894
2.76000	6893
2.76067	6893
2.76133	6892
2.76200	6891
2.76267	6891
2.76333	6890
2.76400	6889
2.76467	6889
2.76533	6888
2.76600	6888
2.76667	6887
2.76733	6887
2.76800	6886
2.76867	6886
2.76933	6886
2.77000	6885
2.77067	6885
2.77133	6885
2.77200	6885
2.77267	6885
2.77333	6885
2.77400	6885
2.77467	6885
2.77533	6885
2.77600	6885
2.77667	6885
2.77733	6885
2.77800	6885
2.77867	6885
2.77933	6885
2.78000	6885
2.78067	6885
2.78133	6886
2.78200	6886
2.78267	6886
2.78333	6887
2.78400	6887
2.78467	6888
2.78533	6888
2.78600	6889
2.78667	6889
2.78733	6890
2.78800	6891
2.78867	6891
2.78933	6892
2.79000	6893
2.79067	6894
2.79133	6894
2.79200	6895
2.79267	6896
2.79333	6897
2.79400	6898
2.79467	6898
2.79533	6899
2.79600	6900
2.79667	6901
2.79733	6902
2.79800	6902
2.79867	6903
2.79933	6904
2.80000	6905
2.80067	6906
2.80133	6907
2.80200	6908
2.80267	6908
2.80333	6909
2.80400	6910
2.80467	6911
2.80533	6911
2.80600	6912
2.80667	6913
2.80733	6913
2.80800	6914
2.80867	6915
2.80933	6915
2.81000	6916
2.81067	6916
2.81133	6916
2.81200	6917
2.81267	6917
2.81333	6917
2.81400	6917
2.81467	6917
2.81533	6917
2.81600	6917
2.81667	6917
2.81733	6917
2.81800	6917
2.81867	6916
2.81933	6916
2.82000	6916
2.82067	6915
2.82133	6915
2.82200	6915
2.82267	6914
2.82333	6914
2.82400	6913
2.82467	6913
2.82533	6912
2.82600	6911
2.82667	6911
2.82733	6910
2.82800	6909
2.82867	6908
2.82933	6907
2.83000	6906
2.83067	6905
2.83133	6905
2.83200	6904
2.83267	6903
2.83333	6902
2.83400	6901
2.83467	6900
2.83533	6898
2.83600	6897
2.83667	6896
2.83733	6895
2.83800	6894
2.83867	6893
2.83933	6891
2.84000	6890
2.84067	6889
2.84133	6887
2.84200	6886
2.84267	6885
2.84333	6883
2.84400	6882
2.84467	6880
2.84533	6879
2.84600	6877
2.84667	6876
2.84733	6874
2.84800	6873
2.84867	6871
2.84933	6870
2.85000	6869
2.85067	6867
2.85133	6866
2.85200	6864
2.85267	6863
2.85333	6861
2.85400	6860
2.85467	6859
2.85533	6857
2.85600	6856
2.85667	6855
2.85733	6854
2.85800	6853
2.85867	6852
2.85933	6851
2.86000	6850
2.86067	6848
2.86133	6847
2.86200	6846
2.86267	6846
2.86333	6845
2.86400	6844
2.86467	6843
2.86533	6842
2.86600	6841
2.86667	6840
2.86733	6840
2.86800	6839
2.86867	6839
2.86933	6838
2.87000	6838
2.87067	6837
2.87133	6837
2.87200	6837
2.87267	6837
2.87333	6837
2.87400	6836
2.87467	6837
2.87533	6837
2.87600	6837
2.87667	6837
2.87733	6838
2.87800	6838
2.87867	6839
2.87933	6839
2.88000	6840
2.88067	6841
2.88133	6842
2.88200	6843
2.88267	6844
2.88333	6845
2.88400	6846
2.88467	6848
2.88533	6849
2.88600	6851
2.88667	6852
2.88733	6854
2.88800	6856
2.88867	6858
2.88933	6859
2.89000	6861
2.89067	6864
2.89133	6866
2.89200	6868
2.89267	6870
2.89333	6873
2.89400	6875
2.89467	6878
2.89533	6880
2.89600	6883
2.89667	6886
2.89733	6888
2.89800	6891
2.89867	6894
2.89933	6897
2.90000	6899
2.90067	6902
2.90133	6905
2.90200	6908
2.90267	6910
2.90333	6913
2.90400	6915
2.90467	6918
2.90533	6920
2.90600	6923
2.90667	6925
2.90733	6927
2.90800	6929
2.90867	6931
2.90933	6933
2.91000	6934
2.91067	6936
2.91133	6937
2.91200	6938
2.91267	6939
2.91333	6940
2.91400	6940
2.91467	6941
2.91533	6941
2.91600	6941
2.91667	6940
2.91733	6940
2.91800	6939
2.91867	6938
2.91933	6937
2.92000	6935
2.92067	6934
2.92133	6932
2.92200	6929
2.92267	6927
2.92333	6924
2.92400	6921
2.92467	6918
2.92533	6915
2.92600	6911
2.92667	6907
2.92733	6903
2.92800	6899
2.92867	6895
2.92933	6890
2.93000	6885
2.93067	6880
2.93133	6875
2.93200	6870
2.93267	6864
2.93333	6859
2.93400	6853
2.93467	6847
2.93533	6841
2.93600	6835
2.93667	6829
2.93733	6822
2.93800	6816
2.93867	6810
2.93933	6803
2.94000	6796
2.94067	6790
2.94133	6783
2.94200	6776
2.94267	6769
2.94333	6762
2.94400	6755
2.94467	6748
2.94533	6741
2.94600	6734
2.94667	6727
2.94733	6719
2.94800	6712
2.94867	6705
2.94933	6698
2.95000	6691
2.95067	6684
2.95133	6677
2.95200	6670
2.95267	6663
2.95333	6656
2.95400	6649
2.95467	6643
2.95533	6636
2.95600	6629
2.95667	6622
2.95733	6616
2.95800	6609
2.95867	6602
2.95933	6596
2.96000	6589
2.96067	6583
2.96133	6577
2.96200	6570
2.96267	6564
2.96333	6558
2.96400	6551
2.96467	6545
2.96533	6539
2.96600	6533
2.96667	6527
2.96733	6521
2.96800	6515
2.96867	6509
2.96933	6504
2.97000	6498
2.97067	6492
2.97133	6487
2.97200	6481
2.97267	6476
2.97333	6471
2.97400	6465
2.97467	6460
2.97533	6455
2.97600	6450
2.97667	6445
2.97733	6441
2.97800	6436
2.97867	6431
2.97933	6426
2.98000	6422
2.98067	6417
2.98133	6413
2.98200	6408
2.98267	6404
2.98333	6399
2.98400	6395
2.98467	6391
2.98533	6387
2.98600	6382
2.98667	6378
2.98733	6374
2.98800	6370
2.98867	6366
2.98933	6362
2.99000	6358
2.99067	6355
2.99133	6351
2.99200	6347
2.99267	6343
2.99333	6340
2.99400	6336
2.99467	6332
2.99533	6329
2.99600	6325
2.99667	6322
2.99733	6318
2.99800	6314
2.99867	6311
2.99933	6307
3.00000	6304
3.00067	6300
3.00133	6297
3.00200	6293
3.00267	6290
3.00333	6287
3.00400	6283
3.00467	6280
3.00533	6276
3.00600	6273
3.00667	6270
3.00733	6266
3.00800	6263
3.00867	6260
3.00933	6257
3.01000	6253
3.01067	6250
3.01133	6247
3.01200	6244
3.01267	6241
3.01333	6238
3.01400	6235
3.01467	6232
3.01533	6229
3.01600	6227
3.01667	6224
3.01733	6221
3.01800	6218
3.01867	6215
3.01933	6212
3.02000	6210
3.02067	6207
3.02133	6204
3.02200	6201
3.02267	6198
3.02333	6196
3.02400	6193
3.02467	6190
3.02533	6188
3.02600	6185
3.02667	6182
3.02733	6180
3.02800	6177
3.02867	6174
3.02933	6172
3.03000	6169
3.03067	6167
3.03133	6164
3.03200	6162
3.03267	6159
3.03333	6156
3.03400	6154
3.03467	6152
3.03533	6149
3.03600	6147
3.03667	6144
3.03733	6142
3.03800	6140
3.03867	6137
3.03933	6135
3.04000	6133
3.04067	6131
3.04133	6128
3.04200	6126
3.04267	6124
3.04333	6122
3.04400	6120
3.04467	6117
3.04533	6115
3.04600	6113
3.04667	6111
3.04733	6109
3.04800	6107
3.04867	6105
3.04933	6103
3.05000	6101
3.05067	6099
3.05133	6097
3.05200	6095
3.05267	6093
3.05333	6091
3.05400	6089
3.05467	6087
3.05533	6086
3.05600	6084
3.05667	6082
3.05733	6080
3.05800	6079
3.05867	6077
3.05933	6075
3.06000	6073
3.06067	6072
3.06133	6070
3.06200	6068
3.06267	6067
3.06333	6065
3.06400	6064
3.06467	6062
3.06533	6060
3.06600	6059
3.06667	6057
3.06733	6056
3.06800	6055
3.06867	6053
3.06933	6052
3.07000	6050
3.07067	6049
3.07133	6047
3.07200	6046
3.07267	6044
3.07333	6043
3.07400	6042
3.07467	6040
3.07533	6039
3.07600	6038
3.07667	6036
3.07733	6035
3.07800	6034
3.07867	6032
3.07933	6031
3.08000	6030
3.08067	6029
3.08133	6028
3.08200	6026
3.08267	6025
3.08333	6024
3.08400	6023
3.08467	6022
3.08533	6021
3.08600	6020
3.08667	6019
3.08733	6018
3.08800	6016
3.08867	6015
3.08933	6014
3.09000	6013
3.09067	6012
3.09133	6010
3.09200	6009
3.09267	6008
3.09333	6006
3.09400	6005
3.09467	6004
3.09533	6002
3.09600	6001
3.09667	5999
3.09733	5998
3.09800	5996
3.09867	5995
3.09933	5993
3.10000	5992
3.10067	5990
3.10133	5989
3.10200	5987
3.10267	5986
3.10333	5984
3.10400	5982
3.10467	5981
3.10533	5979
3.10600	5977
3.10667	5976
3.10733	5974
3.10800	5973
3.10867	5971
3.10933	5969
3.11000	5968
3.11067	5966
3.11133	5964
3.11200	5963
3.11267	5961
3.11333	5959
3.11400	5958
3.11467	5956
3.11533	5954
3.11600	5953
3.11667	5951
3.11733	5949
3.11800	5947
3.11867	5946
3.11933	5944
3.12000	5943
3.12067	5941
3.12133	5940
3.12200	5938
3.12267	5936
3.12333	5935
3.12400	5933
3.12467	5932
3.12533	5930
3.12600	5929
3.12667	5928
3.12733	5926
3.12800	5924
3.12867	5923
3.12933	5921
3.13000	5920
3.13067	5918
3.13133	5917
3.13200	5915
3.13267	5914
3.13333	5912
3.13400	5911
3.13467	5910
3.13533	5908
3.13600	5907
3.13667	5905
3.13733	5904
3.13800	5902
3.13867	5901
3.13933	5900
3.14000	5898
3.14067	5897
3.14133	5896
3.14200	5894
3.14267	5893
3.14333	5891
3.14400	5890
3.14467	5889
3.14533	5888
3.14600	5886
3.14667	5885
3.14733	5884
3.14800	5882
3.14867	5881
3.14933	5880
3.15000	5879
3.15067	5877
3.15133	5876
3.15200	5875
3.15267	5874
3.15333	5872
3.15400	5871
3.15467	5870
3.15533	5869
3.15600	5867
3.15667	5866
3.15733	5865
3.15800	5864
3.15867	5863
3.15933	5862
3.16000	5860
3.16067	5859
3.16133	5858
3.16200	5857
3.16267	5856
3.16333	5854
3.16400	5853
3.16467	5852
3.16533	5851
3.16600	5849
3.16667	5848
3.16733	5847
3.16800	5846
3.16867	5844
3.16933	5843
3.17000	5842
3.17067	5840
3.17133	5839
3.17200	5838
3.17267	5836
3.17333	5835
3.17400	5833
3.17467	5832
3.17533	5830
3.17600	5829
3.17667	5827
3.17733	5826
3.17800	5824
3.17867	5823
3.17933	5822
3.18000	5820
3.18067	5819
3.18133	5817
3.18200	5816
3.18267	5814
3.18333	5813
3.18400	5812
3.18467	5810
3.18533	5809
3.18600	5808
3.18667	5807
3.18733	5806
3.18800	5804
3.18867	5803
3.18933	5802
3.19000	5801
3.19067	5800
3.19133	5799
3.19200	5798
3.19267	5797
3.19333	5796
3.19400	5795
3.19467	5794
3.19533	5793
3.19600	5792
3.19667	5790
3.19733	5789
3.19800	5788
3.19867	5787
3.19933	5786
3.20000	5785
3.20067	5784
3.20133	5783
3.20200	5782
3.20267	5781
3.20333	5780
3.20400	5779
3.20467	5778
3.20533	5777
3.20600	5776
3.20667	5775
3.20733	5774
3.20800	5773
3.20867	5772
3.20933	5771
3.21000	5770
3.21067	5769
3.21133	5768
3.21200	5767
3.21267	5766
3.21333	5765
3.21400	5764
3.21467	5764
3.21533	5763
3.21600	5762
3.21667	5761
3.21733	5760
3.21800	5759
3.21867	5759
3.21933	5758
3.22000	5757
3.22067	5757
3.22133	5756
3.22200	5755
3.22267	5754
3.22333	5754
3.22400	5753
3.22467	5752
3.22533	5751
3.22600	5751
3.22667	5750
3.22733	5749
3.22800	5748
3.22867	5748
3.22933	5747
3.23000	5746
3.23067	5745
3.23133	5745
3.23200	5744
3.23267	5743
3.23333	5742
3.23400	5741
3.23467	5741
3.23533	5740
3.23600	5739
3.23667	5738
3.23733	5737
3.23800	5736
3.23867	5736
3.23933	5735
3.24000	5734
3.24067	5733
3.24133	5732
3.24200	5731
3.24267	5730
3.24333	5730
3.24400	5729
3.24467	5728
3.24533	5727
3.24600	5726
3.24667	5725
3.24733	5725
3.24800	5724
3.24867	5723
3.24933	5722
3.25000	5721
3.25067	5720
3.25133	5719
3.25200	5718
3.25267	5717
3.25333	5717
3.25400	5716
3.25467	5715
3.25533	5714
3.25600	5713
3.25667	5712
3.25733	5711
3.25800	5710
3.25867	5709
3.25933	5708
3.26000	5707
3.26067	5706
3.26133	5705
3.26200	5704
3.26267	5704
3.26333	5703
3.26400	5702
3.26467	5701
3.26533	5700
3.26600	5699
3.26667	5698
3.26733	5697
3.26800	5696
3.26867	5695
3.26933	5694
3.27000	5693
3.27067	5692
3.27133	5691
3.27200	5690
3.27267	5689
3.27333	5688
3.27400	5687
3.27467	5685
3.27533	5684
3.27600	5683
3.27667	5682
3.27733	5681
3.27800	5680
3.27867	5679
3.27933	5677
3.28000	5676
3.28067	5675
3.28133	5674
3.28200	5673
3.28267	5671
3.28333	5670
3.28400	5669
3.28467	5668
3.28533	5667
3.28600	5666
3.28667	5664
3.28733	5663
3.28800	5662
3.28867	5661
3.28933	5660
3.29000	5659
3.29067	5657
3.29133	5656
3.29200	5655
3.29267	5654
3.29333	5653
3.29400	5652
3.29467	5651
3.29533	5650
3.29600	5649
3.29667	5648
3.29733	5647
3.29800	5645
3.29867	5644
3.29933	5643
3.30000	5642
3.30067	5641
3.30133	5640
3.30200	5639
3.30267	5637
3.30333	5636
3.30400	5635
3.30467	5634
3.30533	5633
3.30600	5631
3.30667	5630
3.30733	5629
3.30800	5628
3.30867	5627
3.30933	5625
3.31000	5624
3.31067	5623
3.31133	5622
3.31200	5620
3.31267	5619
3.31333	5618
3.31400	5617
3.31467	5615
3.31533	5614
3.31600	5613
3.31667	5612
3.31733	5610
3.31800	5609
3.31867	5608
3.31933	5607
3.32000	5605
3.32067	5604
3.32133	5603
3.32200	5602
3.32267	5601
3.32333	5599
3.32400	5598
3.32467	5597
3.32533	5596
3.32600	5594
3.32667	5593
3.32733	5592
3.32800	5591
3.32867	5590
3.32933	5589
3.33000	5587
3.33067	5586
3.33133	5585
3.33200	5584
3.33267	5583
3.33333	5581
3.33400	5580
3.33467	5579
3.33533	5578
3.33600	5577
3.33667	5576
3.33733	5575
3.33800	5574
3.33867	5572
3.33933	5571
3.34000	5570
3.34067	5569
3.34133	5568
3.34200	5567
3.34267	5566
3.34333	5565
3.34400	5564
3.34467	5563
3.34533	5562
3.34600	5561
3.34667	5560
3.34733	5559
3.34800	5558
3.34867	5557
3.34933	5556
3.35000	5555
3.35067	5554
3.35133	5553
3.35200	5552
3.35267	5551
3.35333	5550
3.35400	5550
3.35467	5549
3.35533	5548
3.35600	5547
3.35667	5546
3.35733	5545
3.35800	5545
3.35867	5544
3.35933	5543
3.36000	5542
3.36067	5542
3.36133	5541
3.36200	5541
3.36267	5540
3.36333	5539
3.36400	5539
3.36467	5539
3.36533	5538
3.36600	5538
3.36667	5538
3.36733	5538
3.36800	5537
3.36867	5537
3.36933	5537
3.37000	5537
3.37067	5537
3.37133	5537
3.37200	5537
3.37267	5537
3.37333	5538
3.37400	5538
3.37467	5538
3.37533	5539
3.37600	5539
3.37667	5540
3.37733	5540
3.37800	5541
3.37867	5541
3.37933	5542
3.38000	5542
3.38067	5543
3.38133	5544
3.38200	5545
3.38267	5545
3.38333	5546
3.38400	5547
3.38467	5548
3.38533	5549
3.38600	5550
3.38667	5551
3.38733	5552
3.38800	5553
3.38867	5555
3.38933	5556
3.39000	5557
3.39067	5558
3.39133	5560
3.39200	5561
3.39267	5562
3.39333	5564
3.39400	5565
3.39467	5567
3.39533	5568
3.39600	5570
3.39667	5571
3.39733	5573
3.39800	5574
3.39867	5576
3.39933	5578
3.40000	5579
3.40067	5581
3.40133	5583
3.40200	5585
3.40267	5586
3.40333	5588
3.40400	5590
3.40467	5592
3.40533	5594
3.40600	5595
3.40667	5597
3.40733	5599
3.40800	5601
3.40867	5603
3.40933	5604
3.41000	5606
3.41067	5608
3.41133	5609
3.41200	5611
3.41267	5613
3.41333	5614
3.41400	5616
3.41467	5617
3.41533	5619
3.41600	5620
3.41667	5621
3.41733	5623
3.41800	5624
3.41867	5625
3.41933	5627
3.42000	5628
3.42067	5629
3.42133	5630
3.42200	5631
3.42267	5633
3.42333	5634
3.42400	5635
3.42467	5636
3.42533	5636
3.42600	5637
3.42667	5638
3.42733	5639
3.42800	5640
3.42867	5640
3.42933	5641
3.43000	5642
3.43067	5642
3.43133	5643
3.43200	5643
3.43267	5644
3.43333	5644
3.43400	5645
3.43467	5645
3.43533	5645
3.43600	5645
3.43667	5646
3.43733	5646
3.43800	5646
3.43867	5646
3.43933	5646
3.44000	5646
3.44067	5647
3.44133	5647
3.44200	5647
3.44267	5647
3.44333	5647
3.44400	5647
3.44467	5647
3.44533	5647
3.44600	5647
3.44667	5647
3.44733	5647
3.44800	5648
3.44867	5648
3.44933	5648
3.45000	5648
3.45067	5648
3.45133	5648
3.45200	5648
3.45267	5648
3.45333	5648
3.45400	5649
3.45467	5649
3.45533	5649
3.45600	5649
3.45667	5650
3.45733	5650
3.45800	5650
3.45867	5651
3.45933	5651
3.46000	5652
3.46067	5652
3.46133	5653
3.46200	5653
3.46267	5654
3.46333	5655
3.46400	5656
3.46467	5657
3.46533	5657
3.46600	5658
3.46667	5659
3.46733	5661
3.46800	5662
3.46867	5663
3.46933	5664
3.47000	5665
3.47067	5667
3.47133	5668
3.47200	5670
3.47267	5671
3.47333	5673
3.47400	5675
3.47467	5676
3.47533	5678
3.47600	5680
3.47667	5682
3.47733	5684
3.47800	5686
3.47867	5688
3.47933	5690
3.48000	5692
3.48067	5694
3.48133	5697
3.48200	5699
3.48267	5702
3.48333	5704
3.48400	5707
3.48467	5710
3.48533	5713
3.48600	5716
3.48667	5719
3.48733	5723
3.48800	5727
3.48867	5731
3.48933	5735
3.49000	5739
3.49067	5744
3.49133	5748
3.49200	5754
3.49267	5759
3.49333	5765
3.49400	5771
3.49467	5777
3.49533	5784
3.49600	5791
3.49667	5799
3.49733	5807
3.49800	5815
3.49867	5824
3.49933	5833
3.50000	5844
3.50067	5854
3.50133	5865
3.50200	5877
3.50267	5890
3.50333	5903
3.50400	5917
3.50467	5932
3.50533	5948
3.50600	5965
3.50667	5982
3.50733	6001
3.50800	6021
3.50867	6041
3.50933	6063
3.51000	6086
3.51067	6110
3.51133	6136
3.51200	6163
3.51267	6191
3.51333	6221
3.51400	6252
3.51467	6285
3.51533	6319
3.51600	6355
3.51667	6393
3.51733	6433
3.51800	6475
3.51867	6519
3.51933	6564
3.52000	6612
3.52067	6662
3.52133	6714
3.52200	6768
3.52267	6825
3.52333	6884
3.52400	6945
3.52467	7009
3.52533	7075
3.52600	7144
3.52667	7216
3.52733	7290
3.52800	7366
3.52867	7446
3.52933	7528
3.53000	7613
3.53067	7701
3.53133	7792
3.53200	7886
3.53267	7983
3.53333	8082
3.53400	8185
3.53467	8290
3.53533	8398
3.53600	8509
3.53667	8624
3.53733	8741
3.53800	8861
3.53867	8984
3.53933	9110
3.54000	9239
3.54067	9372
3.54133	9507
3.54200	9645
3.54267	9786
3.54333	9930
3.54400	10076
3.54467	10225
3.54533	10377
3.54600	10531
3.54667	10688
3.54733	10847
3.54800	11009
3.54867	11172
3.54933	11338
3.55000	11505
3.55067	11675
3.55133	11846
3.55200	12018
3.55267	12193
3.55333	12368
3.55400	12545
3.55467	12722
3.55533	12900
3.55600	13079
3.55667	13258
3.55733	13438
3.55800	13619
3.55867	13799
3.55933	13980
3.56000	14160
3.56067	14340
3.56133	14520
3.56200	14700
3.56267	14879
3.56333	15057
3.56400	15234
3.56467	15411
3.56533	15586
3.56600	15759
3.56667	15931
3.56733	16102
3.56800	16271
3.56867	16438
3.56933	16603
3.57000	16766
3.57067	16927
3.57133	17086
3.57200	17242
3.57267	17396
3.57333	17548
3.57400	17696
3.57467	17842
3.57533	17985
3.57600	18125
3.57667	18262
3.57733	18396
3.57800	18527
3.57867	18654
3.57933	18779
3.58000	18900
3.58067	19017
3.58133	19132
3.58200	19243
3.58267	19351
3.58333	19455
3.58400	19557
3.58467	19655
3.58533	19750
3.58600	19842
3.58667	19931
3.58733	20016
3.58800	20099
3.58867	20179
3.58933	20255
3.59000	20329
3.59067	20400
3.59133	20468
3.59200	20532
3.59267	20594
3.59333	20653
3.59400	20709
3.59467	20761
3.59533	20811
3.59600	20858
3.59667	20902
3.59733	20943
3.59800	20982
3.59867	21017
3.59933	21050
3.60000	21081
3.60067	21109
3.60133	21134
3.60200	21157
3.60267	21177
3.60333	21195
3.60400	21211
3.60467	21224
3.60533	21235
3.60600	21243
3.60667	21249
3.60733	21253
3.60800	21255
3.60867	21255
3.60933	21252
3.61000	21247
3.61067	21240
3.61133	21231
3.61200	21219
3.61267	21205
3.61333	21189
3.61400	21170
3.61467	21149
3.61533	21126
3.61600	21101
3.61667	21073
3.61733	21043
3.61800	21010
3.61867	20975
3.61933	20938
3.62000	20898
3.62067	20856
3.62133	20811
3.62200	20764
3.62267	20715
3.62333	20664
3.62400	20610
3.62467	20554
3.62533	20495
3.62600	20434
3.62667	20371
3.62733	20306
3.62800	20238
3.62867	20168
3.62933	20095
3.63000	20021
3.63067	19944
3.63133	19865
3.63200	19783
3.63267	19700
3.63333	19614
3.63400	19526
3.63467	19436
3.63533	19343
3.63600	19249
3.63667	19152
3.63733	19054
3.63800	18953
3.63867	18851
3.63933	18747
3.64000	18641
3.64067	18534
3.64133	18425
3.64200	18314
3.64267	18202
3.64333	18088
3.64400	17973
3.64467	17856
3.64533	17739
3.64600	17620
3.64667	17500
3.64733	17379
3.64800	17258
3.64867	17135
3.64933	17011
3.65000	16887
3.65067	16762
3.65133	16636
3.65200	16510
3.65267	16383
3.65333	16255
3.65400	16128
3.65467	16000
3.65533	15872
3.65600	15744
3.65667	15615
3.65733	15487
3.65800	15358
3.65867	15230
3.65933	15102
3.66000	14974
3.66067	14847
3.66133	14720
3.66200	14593
3.66267	14467
3.66333	14341
3.66400	14216
3.66467	14091
3.66533	13967
3.66600	13844
3.66667	13722
3.66733	13600
3.66800	13479
3.66867	13359
3.66933	13240
3.67000	13122
3.67067	13005
3.67133	12889
3.67200	12774
3.67267	12660
3.67333	12548
3.67400	12436
3.67467	12326
3.67533	12216
3.67600	12108
3.67667	12001
3.67733	11896
3.67800	11791
3.67867	11688
3.67933	11586
3.68000	11486
3.68067	11386
3.68133	11288
3.68200	11192
3.68267	11096
3.68333	11002
3.68400	10909
3.68467	10817
3.68533	10727
3.68600	10638
3.68667	10550
3.68733	10464
3.68800	10379
3.68867	10295
3.68933	10213
3.69000	10132
3.69067	10052
3.69133	9973
3.69200	9896
3.69267	9820
3.69333	9745
3.69400	9671
3.69467	9599
3.69533	9527
3.69600	9457
3.69667	9389
3.69733	9321
3.69800	9255
3.69867	9189
3.69933	9125
3.70000	9062
3.70067	9000
3.70133	8940
3.70200	8880
3.70267	8821
3.70333	8764
3.70400	8707
3.70467	8652
3.70533	8598
3.70600	8544
3.70667	8492
3.70733	8440
3.70800	8390
3.70867	8340
3.70933	8292
3.71000	8244
3.71067	8197
3.71133	8151
3.71200	8106
3.71267	8062
3.71333	8018
3.71400	7976
3.71467	7934
3.71533	7893
3.71600	7853
3.71667	7813
3.71733	7775
3.71800	7737
3.71867	7700
3.71933	7663
3.72000	7627
3.72067	7592
3.72133	7558
3.72200	7524
3.72267	7491
3.72333	7459
3.72400	7427
3.72467	7396
3.72533	7366
3.72600	7336
3.72667	7306
3.72733	7278
3.72800	7249
3.72867	7222
3.72933	7194
3.73000	7168
3.73067	7142
3.73133	7116
3.73200	7091
3.73267	7066
3.73333	7041
3.73400	7017
3.73467	6994
3.73533	6971
3.73600	6948
3.73667	6926
3.73733	6904
3.73800	6883
3.73867	6862
3.73933	6841
3.74000	6821
3.74067	6801
3.74133	6781
3.74200	6762
3.74267	6743
3.74333	6725
3.74400	6706
3.74467	6688
3.74533	6671
3.74600	6654
3.74667	6637
3.74733	6620
3.74800	6603
3.74867	6587
3.74933	6571
3.75000	6556
3.75067	6541
3.75133	6526
3.75200	6511
3.75267	6496
3.75333	6482
3.75400	6468
3.75467	6454
3.75533	6441
3.75600	6428
3.75667	6414
3.75733	6401
3.75800	6389
3.75867	6376
3.75933	6364
3.76000	6352
3.76067	6340
3.76133	6328
3.76200	6316
3.76267	6305
3.76333	6294
3.76400	6283
3.76467	6272
3.76533	6262
3.76600	6251
3.76667	6241
3.76733	6231
3.76800	6221
3.76867	6212
3.76933	6202
3.77000	6193
3.77067	6183
3.77133	6174
3.77200	6165
3.77267	6156
3.77333	6147
3.77400	6139
3.77467	6130
3.77533	6122
3.77600	6114
3.77667	6106
3.77733	6098
3.77800	6090
3.77867	6083
3.77933	6075
3.78000	6068
3.78067	6060
3.78133	6053
3.78200	6046
3.78267	6039
3.78333	6032
3.78400	6025
3.78467	6019
3.78533	6012
3.78600	6006
3.78667	5999
3.78733	5993
3.78800	5987
3.78867	5981
3.78933	5975
3.79000	5969
3.79067	5964
3.79133	5958
3.79200	5952
3.79267	5947
3.79333	5941
3.79400	5936
3.79467	5930
3.79533	5925
3.79600	5920
3.79667	5914
3.79733	5909
3.79800	5904
3.79867	5899
3.79933	5894
3.80000	5888
3.80067	5883
3.80133	5878
3.80200	5873
3.80267	5868
3.80333	5863
3.80400	5859
3.80467	5854
3.80533	5849
3.80600	5844
3.80667	5839
3.80733	5835
3.80800	5830
3.80867	5825
3.80933	5820
3.81000	5816
3.81067	5811
3.81133	5806
3.81200	5802
3.81267	5797
3.81333	5793
3.81400	5788
3.81467	5784
3.81533	5779
3.81600	5775
3.81667	5770
3.81733	5766
3.81800	5761
3.81867	5757
3.81933	5753
3.82000	5748
3.82067	5744
3.82133	5739
3.82200	5735
3.82267	5731
3.82333	5726
3.82400	5722
3.82467	5718
3.82533	5713
3.82600	5709
3.82667	5705
3.82733	5701
3.82800	5696
3.82867	5692
3.82933	5688
3.83000	5684
3.83067	5680
3.83133	5676
3.83200	5672
3.83267	5668
3.83333	5664
3.83400	5660
3.83467	5656
3.83533	5652
3.83600	5648
3.83667	5644
3.83733	5640
3.83800	5636
3.83867	5632
3.83933	5629
3.84000	5625
3.84067	5621
3.84133	5618
3.84200	5614
3.84267	5610
3.84333	5607
3.84400	5603
3.84467	5600
3.84533	5596
3.84600	5592
3.84667	5589
3.84733	5585
3.84800	5582
3.84867	5578
3.84933	5575
3.85000	5571
3.85067	5568
3.85133	5564
3.85200	5561
3.85267	5557
3.85333	5554
3.85400	5551
3.85467	5547
3.85533	5544
3.85600	5540
3.85667	5537
3.85733	5534
3.85800	5531
3.85867	5527
3.85933	5524
3.86000	5521
3.86067	5517
3.86133	5514
3.86200	5511
3.86267	5508
3.86333	5505
3.86400	5502
3.86467	5499
3.86533	5496
3.86600	5493
3.86667	5490
3.86733	5487
3.86800	5484
3.86867	5481
3.86933	5478
3.87000	5475
3.87067	5472
3.87133	5469
3.87200	5467
3.87267	5464
3.87333	5461
3.87400	5458
3.87467	5455
3.87533	5453
3.87600	5450
3.87667	5447
3.87733	5445
3.87800	5442
3.87867	5439
3.87933	5437
3.88000	5434
3.88067	5431
3.88133	5429
3.88200	5426
3.88267	5423
3.88333	5421
3.88400	5418
3.88467	5416
3.88533	5413
3.88600	5411
3.88667	5409
3.88733	5406
3.88800	5404
3.88867	5401
3.88933	5399
3.89000	5396
3.89067	5394
3.89133	5392
3.89200	5389
3.89267	5387
3.89333	5385
3.89400	5382
3.89467	5380
3.89533	5378
3.89600	5376
3.89667	5373
3.89733	5371
3.89800	5369
3.89867	5367
3.89933	5364
3.90000	5362
3.90067	5360
3.90133	5358
3.90200	5356
3.90267	5354
3.90333	5352
3.90400	5350
3.90467	5348
3.90533	5346
3.90600	5344
3.90667	5342
3.90733	5340
3.90800	5338
3.90867	5336
3.90933	5334
3.91000	5332
3.91067	5330
3.91133	5329
3.91200	5327
3.91267	5325
3.91333	5323
3.91400	5321
3.91467	5319
3.91533	5317
3.91600	5315
3.91667	5313
3.91733	5311
3.91800	5309
3.91867	5307
3.91933	5305
3.92000	5304
3.92067	5302
3.92133	5300
3.92200	5298
3.92267	5296
3.92333	5294
3.92400	5292
3.92467	5290
3.92533	5288
3.92600	5286
3.92667	5284
3.92733	5282
3.92800	5280
3.92867	5278
3.92933	5276
3.93000	5274
3.93067	5272
3.93133	5270
3.93200	5268
3.93267	5266
3.93333	5264
3.93400	5262
3.93467	5260
3.93533	5258
3.93600	5256
3.93667	5254
3.93733	5252
3.93800	5250
3.93867	5248
3.93933	5246
3.94000	5244
3.94067	5242
3.94133	5240
3.94200	5238
3.94267	5236
3.94333	5234
3.94400	5232
3.94467	5230
3.94533	5229
3.94600	5227
3.94667	5225
3.94733	5223
3.94800	5221
3.94867	5220
3.94933	5218
3.95000	5216
3.95067	5214
3.95133	5213
3.95200	5211
3.95267	5209
3.95333	5208
3.95400	5206
3.95467	5205
3.95533	5203
3.95600	5202
3.95667	5200
3.95733	5199
3.95800	5197
3.95867	5196
3.95933	5195
3.96000	5194
3.96067	5192
3.96133	5191
3.96200	5190
3.96267	5189
3.96333	5187
3.96400	5186
3.96467	5185
3.96533	5184
3.96600	5183
3.96667	5182
3.96733	5181
3.96800	5180
3.96867	5179
3.96933	5178
3.97000	5177
3.97067	5176
3.97133	5175
3.97200	5173
3.97267	5173
3.97333	5172
3.97400	5171
3.97467	5170
3.97533	5169
3.97600	5168
3.97667	5167
3.97733	5166
3.97800	5166
3.97867	5165
3.97933	5164
3.98000	5164
3.98067	5163
3.98133	5162
3.98200	5162
3.98267	5161
3.98333	5161
3.98400	5160
3.98467	5160
3.98533	5159
3.98600	5159
3.98667	5158
3.98733	5158
3.98800	5157
3.98867	5157
3.98933	5156
3.99000	5156
3.99067	5156
3.99133	5155
3.99200	5155
3.99267	5155
3.99333	5155
3.99400	5155
3.99467	5155
3.99533	5155
3.99600	5155
3.99667	5155
3.99733	5155
3.99800	5155
3.99867	5156
3.99933	5156
4.00000	5156
4.00067	5156
4.00133	5157
4.00200	5157
4.00267	5158
4.00333	5158
4.00400	5159
4.00467	5160
4.00533	5160
4.00600	5161
4.00667	5162
4.00733	5163
4.00800	5163
4.00867	5164
4.00933	5166
4.01000	5167
4.01067	5168
4.01133	5169
4.01200	5170
4.01267	5172
4.01333	5173
4.01400	5174
4.01467	5176
4.01533	5177
4.01600	5179
4.01667	5181
4.01733	5183
4.01800	5184
4.01867	5186
4.01933	5188
4.02000	5190
4.02067	5193
4.02133	5195
4.02200	5197
4.02267	5200
4.02333	5202
4.02400	5205
4.02467	5207
4.02533	5210
4.02600	5213
4.02667	5216
4.02733	5218
4.02800	5221
4.02867	5224
4.02933	5227
4.03000	5231
4.03067	5234
4.03133	5237
4.03200	5240
4.03267	5244
4.03333	5247
4.03400	5251
4.03467	5255
4.03533	5258
4.03600	5262
4.03667	5266
4.03733	5270
4.03800	5274
4.03867	5278
4.03933	5283
4.04000	5287
4.04067	5292
4.04133	5296
4.04200	5301
4.04267	5306
4.04333	5311
4.04400	5316
4.04467	5321
4.04533	5326
4.04600	5332
4.04667	5337
4.04733	5343
4.04800	5349
4.04867	5355
4.04933	5361
4.05000	5367
4.05067	5374
4.05133	5380
4.05200	5387
4.05267	5394
4.05333	5401
4.05400	5408
4.05467	5416
4.05533	5423
4.05600	5431
4.05667	5439
4.05733	5447
4.05800	5455
4.05867	5464
4.05933	5472
4.06000	5481
4.06067	5490
4.06133	5499
4.06200	5508
4.06267	5518
4.06333	5527
4.06400	5537
4.06467	5547
4.06533	5558
4.06600	5568
4.06667	5579
4.06733	5590
4.06800	5601
4.06867	5613
4.06933	5625
4.07000	5637
4.07067	5649
4.07133	5662
4.07200	5675
4.07267	5688
4.07333	5701
4.07400	5715
4.07467	5729
4.07533	5744
4.07600	5758
4.07667	5773
4.07733	5789
4.07800	5804
4.07867	5820
4.07933	5837
4.08000	5853
4.08067	5870
4.08133	5887
4.08200	5905
4.08267	5923
4.08333	5941
4.08400	5960
4.08467	5979
4.08533	5998
4.08600	6018
4.08667	6038
4.08733	6058
4.08800	6079
4.08867	6100
4.08933	6121
4.09000	6143
4.09067	6165
4.09133	6188
4.09200	6210
4.09267	6233
4.09333	6257
4.09400	6280
4.09467	6304
4.09533	6328
4.09600	6353
4.09667	6377
4.09733	6402
4.09800	6427
4.09867	6453
4.09933	6478
4.10000	6504
4.10067	6530
4.10133	6556
4.10200	6582
4.10267	6609
4.10333	6635
4.10400	6662
4.10467	6688
4.10533	6715
4.10600	6741
4.10667	6768
4.10733	6794
4.10800	6821
4.10867	6847
4.10933	6874
4.11000	6900
4.11067	6926
4.11133	6953
4.11200	6979
4.11267	7004
4.11333	7030
4.11400	7055
4.11467	7081
4.11533	7106
4.11600	7131
4.11667	7155
4.11733	7180
4.11800	7204
4.11867	7227
4.11933	7250
4.12000	7273
4.12067	7296
4.12133	7318
4.12200	7339
4.12267	7361
4.12333	7381
4.12400	7402
4.12467	7422
4.12533	7441
4.12600	7460
4.12667	7478
4.12733	7496
4.12800	7514
4.12867	7531
4.12933	7547
4.13000	7563
4.13067	7578
4.13133	7592
4.13200	7606
4.13267	7619
4.13333	7632
4.13400	7644
4.13467	7655
4.13533	7666
4.13600	7676
4.13667	7686
4.13733	7695
4.13800	7703
4.13867	7711
4.13933	7718
4.14000	7724
4.14067	7730
4.14133	7735
4.14200	7739
4.14267	7743
4.14333	7746
4.14400	7749
4.14467	7750
4.14533	7751
4.14600	7752
4.14667	7752
4.14733	7751
4.14800	7750
4.14867	7748
4.14933	7745
4.15000	7742
4.15067	7739
4.15133	7734
4.15200	7729
4.15267	7724
4.15333	7718
4.15400	7711
4.15467	7704
4.15533	7696
4.15600	7688
4.15667	7679
4.15733	7670
4.15800	7660
4.15867	7650
4.15933	7639
4.16000	7628
4.16067	7616
4.16133	7604
4.16200	7591
4.16267	7578
4.16333	7565
4.16400	7551
4.16467	7537
4.16533	7523
4.16600	7508
4.16667	7493
4.16733	7478
4.16800	7462
4.16867	7446
4.16933	7430
4.17000	7414
4.17067	7397
4.17133	7380
4.17200	7363
4.17267	7346
4.17333	7329
4.17400	7311
4.17467	7294
4.17533	7276
4.17600	7258
4.17667	7240
4.17733	7222
4.17800	7203
4.17867	7185
4.17933	7167
4.18000	7148
4.18067	7130
4.18133	7111
4.18200	7093
4.18267	7075
4.18333	7056
4.18400	7038
4.18467	7020
4.18533	7002
4.18600	6984
4.18667	6967
4.18733	6949
4.18800	6931
4.18867	6914
4.18933	6897
4.19000	6880
4.19067	6863
4.19133	6846
4.19200	6830
4.19267	6814
4.19333	6798
4.19400	6782
4.19467	6766
4.19533	6751
4.19600	6736
4.19667	6721
4.19733	6706
4.19800	6692
4.19867	6678
4.19933	6664
4.20000	6651
4.20067	6638
4.20133	6626
4.20200	6613
4.20267	6602
4.20333	6590
4.20400	6579
4.20467	6569
4.20533	6558
4.20600	6549
4.20667	6539
4.20733	6530
4.20800	6522
4.20867	6514
4.20933	6506
4.21000	6499
4.21067	6492
4.21133	6486
4.21200	6481
4.21267	6476
4.21333	6471
4.21400	6468
4.21467	6464
4.21533	6462
4.21600	6460
4.21667	6459
4.21733	6458
4.21800	6458
4.21867	6459
4.21933	6460
4.22000	6463
4.22067	6465
4.22133	6469
4.22200	6474
4.22267	6479
4.22333	6485
4.22400	6491
4.22467	6499
4.22533	6507
4.22600	6516
4.22667	6526
4.22733	6537
4.22800	6549
4.22867	6562
4.22933	6575
4.23000	6590
4.23067	6606
4.23133	6622
4.23200	6640
4.23267	6658
4.23333	6678
4.23400	6698
4.23467	6720
4.23533	6742
4.23600	6766
4.23667	6790
4.23733	6816
4.23800	6843
4.23867	6871
4.23933	6900
4.24000	6931
4.24067	6962
4.24133	6995
4.24200	7028
4.24267	7063
4.24333	7100
4.24400	7137
4.24467	7176
4.24533	7216
4.24600	7257
4.24667	7299
4.24733	7342
4.24800	7387
4.24867	7433
4.24933	7480
4.25000	7529
4.25067	7579
4.25133	7630
4.25200	7682
4.25267	7736
4.25333	7791
4.25400	7848
4.25467	7905
4.25533	7964
4.25600	8025
4.25667	8086
4.25733	8149
4.25800	8214
4.25867	8279
4.25933	8346
4.26000	8415
4.26067	8484
4.26133	8555
4.26200	8627
4.26267	8700
4.26333	8775
4.26400	8851
4.26467	8928
4.26533	9006
4.26600	9085
4.26667	9165
4.26733	9247
4.26800	9329
4.26867	9413
4.26933	9498
4.27000	9583
4.27067	9670
4.27133	9757
4.27200	9846
4.27267	9935
4.27333	10025
4.27400	10116
4.27467	10208
4.27533	10301
4.27600	10394
4.27667	10488
4.27733	10583
4.27800	10678
4.27867	10774
4.27933	10870
4.28000	10967
4.28067	11065
4.28133	11162
4.28200	11261
4.28267	11359
4.28333	11458
4.28400	11558
4.28467	11658
4.28533	11758
4.28600	11859
4.28667	11959
4.28733	12061
4.28800	12162
4.28867	12264
4.28933	12366
4.29000	12469
4.29067	12572
4.29133	12674
4.29200	12778
4.29267	12881
4.29333	12984
4.29400	13088
4.29467	13192
4.29533	13296
4.29600	13400
4.29667	13504
4.29733	13607
4.29800	13711
4.29867	13815
4.29933	13918
4.30000	14021
4.30067	14124
4.30133	14227
4.30200	14329
4.30267	14430
4.30333	14531
4.30400	14631
4.30467	14731
4.30533	14831
4.30600	14929
4.30667	15027
4.30733	15125
4.30800	15222
4.30867	15318
4.30933	15413
4.31000	15507
4.31067	15601
4.31133	15693
4.31200	15785
4.31267	15876
4.31333	15966
4.31400	16055
4.31467	16143
4.31533	16229
4.31600	16315
4.31667	16400
4.31733	16483
4.31800	16566
4.31867	16647
4.31933	16727
4.32000	16805
4.32067	16883
4.32133	16959
4.32200	17034
4.32267	17108
4.32333	17180
4.32400	17251
4.32467	17320
4.32533	17388
4.32600	17455
4.32667	17520
4.32733	17583
4.32800	17645
4.32867	17706
4.32933	17765
4.33000	17822
4.33067	17878
4.33133	17932
4.33200	17984
4.33267	18034
4.33333	18083
4.33400	18130
4.33467	18175
4.33533	18218
4.33600	18259
4.33667	18298
4.33733	18336
4.33800	18371
4.33867	18404
4.33933	18436
4.34000	18465
4.34067	18492
4.34133	18517
4.34200	18541
4.34267	18562
4.34333	18581
4.34400	18598
4.34467	18613
4.34533	18626
4.34600	18637
4.34667	18646
4.34733	18652
4.34800	18657
4.34867	18660
4.34933	18660
4.35000	18659
4.35067	18655
4.35133	18650
4.35200	18642
4.35267	18633
4.35333	18621
4.35400	18608
4.35467	18593
4.35533	18575
4.35600	18556
4.35667	18535
4.35733	18512
4.35800	18488
4.35867	18461
4.35933	18433
4.36000	18403
4.36067	18372
4.36133	18339
4.36200	18304
4.36267	18268
4.36333	18231
4.36400	18192
4.36467	18152
4.36533	18110
4.36600	18067
4.36667	18022
4.36733	17977
4.36800	17930
4.36867	17882
4.36933	17834
4.37000	17784
4.37067	17733
4.37133	17682
4.37200	17630
4.37267	17577
4.37333	17524
4.37400	17470
4.37467	17415
4.37533	17360
4.37600	17305
4.37667	17249
4.37733	17193
4.37800	17136
4.37867	17080
4.37933	17023
4.38000	16966
4.38067	16909
4.38133	16851
4.38200	16794
4.38267	16737
4.38333	16680
4.38400	16623
4.38467	16566
4.38533	16509
4.38600	16453
4.38667	16396
4.38733	16340
4.38800	16285
4.38867	16230
4.38933	16175
4.39000	16121
4.39067	16067
4.39133	16014
4.39200	15961
4.39267	15909
4.39333	15858
4.39400	15808
4.39467	15758
4.39533	15709
4.39600	15661
4.39667	15614
4.39733	15568
4.39800	15523
4.39867	15479
4.39933	15436
4.40000	15394
4.40067	15353
4.40133	15312
4.40200	15273
4.40267	15235
4.40333	15197
4.40400	15161
4.40467	15126
4.40533	15092
4.40600	15059
4.40667	15027
4.40733	14996
4.40800	14966
4.40867	14937
4.40933	14910
4.41000	14883
4.41067	14857
4.41133	14833
4.41200	14810
4.41267	14787
4.41333	14766
4.41400	14746
4.41467	14728
4.41533	14710
4.41600	14693
4.41667	14677
4.41733	14663
4.41800	14649
4.41867	14636
4.41933	14625
4.42000	14614
4.42067	14605
4.42133	14596
4.42200	14588
4.42267	14581
4.42333	14576
4.42400	14571
4.42467	14567
4.42533	14564
4.42600	14562
4.42667	14561
4.42733	14561
4.42800	14561
4.42867	14563
4.42933	14565
4.43000	14568
4.43067	14571
4.43133	14575
4.43200	14580
4.43267	14585
4.43333	14591
4.43400	14597
4.43467	14604
4.43533	14611
4.43600	14618
4.43667	14626
4.43733	14635
4.43800	14643
4.43867	14652
4.43933	14661
4.44000	14670
4.44067	14680
4.44133	14689
4.44200	14699
4.44267	14709
4.44333	14719
4.44400	14730
4.44467	14740
4.44533	14751
4.44600	14762
4.44667	14773
4.44733	14785
4.44800	14796
4.44867	14808
4.44933	14820
4.45000	14832
4.45067	14844
4.45133	14857
4.45200	14869
4.45267	14882
4.45333	14894
4.45400	14907
4.45467	14919
4.45533	14931
4.45600	14944
4.45667	14956
4.45733	14968
4.45800	14980
4.45867	14992
4.45933	15003
4.46000	15015
4.46067	15027
4.46133	15038
4.46200	15049
4.46267	15060
4.46333	15071
4.46400	15082
4.46467	15093
4.46533	15103
4.46600	15114
4.46667	15124
4.46733	15134
4.46800	15143
4.46867	15153
4.46933	15162
4.47000	15171
4.47067	15180
4.47133	15189
4.47200	15197
4.47267	15205
4.47333	15212
4.47400	15220
4.47467	15226
4.47533	15233
4.47600	15240
4.47667	15246
4.47733	15252
4.47800	15257
4.47867	15263
4.47933	15268
4.48000	15273
4.48067	15278
4.48133	15283
4.48200	15287
4.48267	15291
4.48333	15295
4.48400	15299
4.48467	15302
4.48533	15305
4.48600	15308
4.48667	15310
4.48733	15312
4.48800	15314
4.48867	15315
4.48933	15317
4.49000	15317
4.49067	15318
4.49133	15318
4.49200	15318
4.49267	15317
4.49333	15316
4.49400	15315
4.49467	15313
4.49533	15311
4.49600	15309
4.49667	15306
4.49733	15302
4.49800	15299
4.49867	15295
4.49933	15290
4.50000	15285
4.50067	15280
4.50133	15275
4.50200	15269
4.50267	15263
4.50333	15256
4.50400	15249
4.50467	15242
4.50533	15234
4.50600	15226
4.50667	15218
4.50733	15209
4.50800	15199
4.50867	15190
4.50933	15180
4.51000	15170
4.51067	15159
4.51133	15148
4.51200	15137
4.51267	15125
4.51333	15113
4.51400	15100
4.51467	15088
4.51533	15075
4.51600	15061
4.51667	15048
4.51733	15034
4.51800	15019
4.51867	15005
4.51933	14990
4.52000	14974
4.52067	14959
4.52133	14943
4.52200	14926
4.52267	14910
4.52333	14893
4.52400	14876
4.52467	14858
4.52533	14840
4.52600	14823
4.52667	14804
4.52733	14786
4.52800	14768
4.52867	14749
4.52933	14731
4.53000	14712
4.53067	14693
4.53133	14674
4.53200	14655
4.53267	14636
4.53333	14617
4.53400	14598
4.53467	14578
4.53533	14559
4.53600	14540
4.53667	14521
4.53733	14501
4.53800	14482
4.53867	14463
4.53933	14444
4.54000	14425
4.54067	14406
4.54133	14387
4.54200	14369
4.54267	14350
4.54333	14332
4.54400	14314
4.54467	14296
4.54533	14279
4.54600	14261
4.54667	14244
4.54733	14227
4.54800	14211
4.54867	14194
4.54933	14178
4.55000	14162
4.55067	14147
4.55133	14132
4.55200	14117
4.55267	14102
4.55333	14087
4.55400	14073
4.55467	14059
4.55533	14046
4.55600	14033
4.55667	14020
4.55733	14007
4.55800	13994
4.55867	13982
4.55933	13970
4.56000	13959
4.56067	13947
4.56133	13936
4.56200	13926
4.56267	13915
4.56333	13905
4.56400	13894
4.56467	13884
4.56533	13875
4.56600	13865
4.56667	13856
4.56733	13847
4.56800	13838
4.56867	13829
4.56933	13821
4.57000	13812
4.57067	13804
4.57133	13796
4.57200	13788
4.57267	13780
4.57333	13772
4.57400	13764
4.57467	13756
4.57533	13749
4.57600	13741
4.57667	13734
4.57733	13727
4.57800	13719
4.57867	13712
4.57933	13705
4.58000	13698
4.58067	13690
4.58133	13683
4.58200	13676
4.58267	13668
4.58333	13661
4.58400	13653
4.58467	13645
4.58533	13637
4.58600	13629
4.58667	13621
4.58733	13613
4.58800	13604
4.58867	13596
4.58933	13587
4.59000	13578
4.59067	13570
4.59133	13560
4.59200	13551
4.59267	13542
4.59333	13532
4.59400	13522
4.59467	13512
4.59533	13501
4.59600	13490
4.59667	13479
4.59733	13468
4.59800	13456
4.59867	13444
4.59933	13431
4.60000	13418
4.60067	13405
4.60133	13391
4.60200	13377
4.60267	13363
4.60333	13348
4.60400	13333
4.60467	13317
4.60533	13301
4.60600	13285
4.60667	13268
4.60733	13251
4.60800	13234
4.60867	13216
4.60933	13198
4.61000	13179
4.61067	13161
4.61133	13142
4.61200	13122
4.61267	13103
4.61333	13083
4.61400	13063
4.61467	13042
4.61533	13022
4.61600	13001
4.61667	12979
4.61733	12958
4.61800	12936
4.61867	12914
4.61933	12891
4.62000	12868
4.62067	12845
4.62133	12822
4.62200	12798
4.62267	12774
4.62333	12750
4.62400	12725
4.62467	12700
4.62533	12675
4.62600	12650
4.62667	12624
4.62733	12598
4.62800	12572
4.62867	12546
4.62933	12520
4.63000	12494
4.63067	12467
4.63133	12441
4.63200	12414
4.63267	12387
4.63333	12360
4.63400	12333
4.63467	12306
4.63533	12279
4.63600	12251
4.63667	12224
4.63733	12196
4.63800	12169
4.63867	12141
4.63933	12114
4.64000	12086
4.64067	12059
4.64133	12031
4.64200	12004
4.64267	11976
4.64333	11949
4.64400	11921
4.64467	11894
4.64533	11867
4.64600	11840
4.64667	11813
4.64733	11787
4.64800	11760
4.64867	11734
4.64933	11707
4.65000	11681
4.65067	11655
4.65133	11630
4.65200	11604
4.65267	11579
4.65333	11554
4.65400	11529
4.65467	11504
4.65533	11480
4.65600	11455
4.65667	11431
4.65733	11407
4.65800	11384
4.65867	11360
4.65933	11337
4.66000	11313
4.66067	11290
4.66133	11268
4.66200	11245
4.66267	11222
4.66333	11200
4.66400	11178
4.66467	11156
4.66533	11134
4.66600	11112
4.66667	11091
4.66733	11070
4.66800	11049
4.66867	11028
4.66933	11007
4.67000	10987
4.67067	10967
4.67133	10946
4.67200	10927
4.67267	10907
4.67333	10887
4.67400	10868
4.67467	10849
4.67533	10831
4.67600	10812
4.67667	10794
4.67733	10776
4.67800	10758
4.67867	10740
4.67933	10723
4.68000	10706
4.68067	10689
4.68133	10672
4.68200	10656
4.68267	10639
4.68333	10623
4.68400	10607
4.68467	10592
4.68533	10576
4.68600	10561
4.68667	10546
4.68733	10531
4.68800	10516
4.68867	10502
4.68933	10487
4.69000	10473
4.69067	10458
4.69133	10444
4.69200	10430
4.69267	10416
4.69333	10402
4.69400	10387
4.69467	10373
4.69533	10359
4.69600	10345
4.69667	10331
4.69733	10317
4.69800	10303
4.69867	10289
4.69933	10275
4.70000	10262
4.70067	10248
4.70133	10234
4.70200	10220
4.70267	10207
4.70333	10193
4.70400	10180
4.70467	10166
4.70533	10153
4.70600	10140
4.70667	10126
4.70733	10113
4.70800	10100
4.70867	10087
4.70933	10074
4.71000	10061
4.71067	10048
4.71133	10035
4.71200	10022
4.71267	10009
4.71333	9996
4.71400	9983
4.71467	9970
4.71533	9957
4.71600	9944
4.71667	9931
4.71733	9918
4.71800	9905
4.71867	9892
4.71933	9879
4.72000	9866
4.72067	9854
4.72133	9841
4.72200	9828
4.72267	9815
4.72333	9803
4.72400	9790
4.72467	9777
4.72533	9764
4.72600	9752
4.72667	9739
4.72733	9727
4.72800	9714
4.72867	9701
4.72933	9689
4.73000	9676
4.73067	9663
4.73133	9651
4.73200	9638
4.73267	9626
4.73333	9613
4.73400	9601
4.73467	9588
4.73533	9576
4.73600	9564
4.73667	9551
4.73733	9539
4.73800	9527
4.73867	9515
4.73933	9503
4.74000	9491
4.74067	9479
4.74133	9467
4.74200	9455
4.74267	9443
4.74333	9432
4.74400	9420
4.74467	9408
4.74533	9396
4.74600	9385
4.74667	9373
4.74733	9361
4.74800	9349
4.74867	9338
4.74933	9326
4.75000	9315
4.75067	9303
4.75133	9292
4.75200	9281
4.75267	9269
4.75333	9258
4.75400	9247
4.75467	9236
4.75533	9225
4.75600	9215
4.75667	9204
4.75733	9193
4.75800	9182
4.75867	9172
4.75933	9161
4.76000	9151
4.76067	9140
4.76133	9130
4.76200	9120
4.76267	9109
4.76333	9099
4.76400	9089
4.76467	9079
4.76533	9069
4.76600	9058
4.76667	9048
4.76733	9039
4.76800	9029
4.76867	9019
4.76933	9009
4.77000	8999
4.77067	8990
4.77133	8980
4.77200	8971
4.77267	8961
4.77333	8951
4.77400	8942
4.77467	8933
4.77533	8923
4.77600	8914
4.77667	8905
4.77733	8896
4.77800	8887
4.77867	8879
4.77933	8870
4.78000	8861
4.78067	8853
4.78133	8844
4.78200	8836
4.78267	8828
4.78333	8819
4.78400	8811
4.78467	8803
4.78533	8795
4.78600	8787
4.78667	8779
4.78733	8771
4.78800	8763
4.78867	8756
4.78933	8748
4.79000	8741
4.79067	8733
4.79133	8726
4.79200	8719
4.79267	8712
4.79333	8705
4.79400	8698
4.79467	8691
4.79533	8684
4.79600	8677
4.79667	8670
4.79733	8663
4.79800	8657
4.79867	8650
4.79933	8644
4.80000	8637
4.80067	8631
4.80133	8625
4.80200	8618
4.80267	8612
4.80333	8606
4.80400	8600
4.80467	8594
4.80533	8588
4.80600	8582
4.80667	8576
4.80733	8571
4.80800	8565
4.80867	8559
4.80933	8554
4.81000	8548
4.81067	8543
4.81133	8537
4.81200	8532
4.81267	8526
4.81333	8521
4.81400	8516
4.81467	8511
4.81533	8505
4.81600	8500
4.81667	8495
4.81733	8490
4.81800	8484
4.81867	8479
4.81933	8474
4.82000	8469
4.82067	8464
4.82133	8459
4.82200	8453
4.82267	8448
4.82333	8443
4.82400	8438
4.82467	8433
4.82533	8428
4.82600	8423
4.82667	8418
4.82733	8413
4.82800	8409
4.82867	8404
4.82933	8399
4.83000	8394
4.83067	8389
4.83133	8384
4.83200	8380
4.83267	8375
4.83333	8370
4.83400	8366
4.83467	8361
4.83533	8356
4.83600	8352
4.83667	8347
4.83733	8342
4.83800	8338
4.83867	8333
4.83933	8328
4.84000	8323
4.84067	8319
4.84133	8314
4.84200	8309
4.84267	8304
4.84333	8299
4.84400	8295
4.84467	8290
4.84533	8285
4.84600	8280
4.84667	8275
4.84733	8270
4.84800	8265
4.84867	8260
4.84933	8255
4.85000	8250
4.85067	8245
4.85133	8240
4.85200	8235
4.85267	8229
4.85333	8224
4.85400	8219
4.85467	8214
4.85533	8209
4.85600	8204
4.85667	8199
4.85733	8194
4.85800	8189
4.85867	8184
4.85933	8179
4.86000	8174
4.86067	8169
4.86133	8164
4.86200	8159
4.86267	8154
4.86333	8149
4.86400	8145
4.86467	8140
4.86533	8135
4.86600	8130
4.86667	8125
4.86733	8121
4.86800	8116
4.86867	8111
4.86933	8106
4.87000	8101
4.87067	8096
4.87133	8091
4.87200	8087
4.87267	8082
4.87333	8077
4.87400	8072
4.87467	8068
4.87533	8063
4.87600	8058
4.87667	8054
4.87733	8049
4.87800	8045
4.87867	8040
4.87933	8036
4.88000	8031
4.88067	8027
4.88133	8022
4.88200	8017
4.88267	8013
4.88333	8008
4.88400	8004
4.88467	7999
4.88533	7995
4.88600	7990
4.88667	7985
4.88733	7981
4.88800	7976
4.88867	7971
4.88933	7967
4.89000	7962
4.89067	7957
4.89133	7953
4.89200	7948
4.89267	7943
4.89333	7939
4.89400	7934
4.89467	7929
4.89533	7925
4.89600	7920
4.89667	7915
4.89733	7911
4.89800	7906
4.89867	7902
4.89933	7897
4.90000	7892
4.90067	7888
4.90133	7884
4.90200	7879
4.90267	7875
4.90333	7870
4.90400	7866
4.90467	7862
4.90533	7858
4.90600	7853
4.90667	7849
4.90733	7845
4.90800	7841
4.90867	7837
4.90933	7833
4.91000	7829
4.91067	7825
4.91133	7821
4.91200	7817
4.91267	7813
4.91333	7809
4.91400	7805
4.91467	7801
4.91533	7797
4.91600	7793
4.91667	7789
4.91733	7785
4.91800	7782
4.91867	7778
4.91933	7774
4.92000	7771
4.92067	7767
4.92133	7763
4.92200	7760
4.92267	7757
4.92333	7753
4.92400	7750
4.92467	7747
4.92533	7744
4.92600	7741
4.92667	7738
4.92733	7735
4.92800	7732
4.92867	7729
4.92933	7727
4.93000	7724
4.93067	7721
4.93133	7719
4.93200	7716
4.93267	7714
4.93333	7711
4.93400	7709
4.93467	7707
4.93533	7705
4.93600	7702
4.93667	7700
4.93733	7698
4.93800	7696
4.93867	7694
4.93933	7693
4.94000	7691
4.94067	7689
4.94133	7688
4.94200	7686
4.94267	7685
4.94333	7683
4.94400	7682
4.94467	7680
4.94533	7679
4.94600	7678
4.94667	7677
4.94733	7676
4.94800	7675
4.94867	7674
4.94933	7673
4.95000	7672
4.95067	7671
4.95133	7670
4.95200	7670
4.95267	7669
4.95333	7668
4.95400	7668
4.95467	7668
4.95533	7667
4.95600	7667
4.95667	7667
4.95733	7666
4.95800	7666
4.95867	7666
4.95933	7666
4.96000	7666
4.96067	7666
4.96133	7667
4.96200	7667
4.96267	7667
4.96333	7667
4.96400	7668
4.96467	7668
4.96533	7668
4.96600	7669
4.96667	7669
4.96733	7670
4.96800	7670
4.96867	7671
4.96933	7672
4.97000	7672
4.97067	7673
4.97133	7674
4.97200	7675
4.97267	7675
4.97333	7676
4.97400	7677
4.97467	7678
4.97533	7679
4.97600	7680
4.97667	7681
4.97733	7681
4.97800	7682
4.97867	7683
4.97933	7684
4.98000	7685
4.98067	7686
4.98133	7687
4.98200	7688
4.98267	7689
4.98333	7691
4.98400	7692
4.98467	7693
4.98533	7694
4.98600	7695
4.98667	7697
4.98733	7698
4.98800	7700
4.98867	7701
4.98933	7702
4.99000	7704
4.99067	7705
4.99133	7707
4.99200	7708
4.99267	7709
4.99333	7711
4.99400	7712
4.99467	7713
4.99533	7715
4.99600	7716
4.99667	7717
4.99733	7719
4.99800	7720
4.99867	7721
4.99933	7722
5.00000	7723
5.00067	7724
5.00133	7725
5.00200	7726
5.00267	7727
5.00333	7728
5.00400	7729
5.00467	7730
5.00533	7731
5.00600	7731
5.00667	7732
5.00733	7733
5.00800	7733
5.00867	7734
5.00933	7734
5.01000	7735
5.01067	7735
5.01133	7735
5.01200	7735
5.01267	7735
5.01333	7735
5.01400	7735
5.01467	7735
5.01533	7735
5.01600	7734
5.01667	7734
5.01733	7733
5.01800	7733
5.01867	7732
5.01933	7731
5.02000	7730
5.02067	7729
5.02133	7728
5.02200	7727
5.02267	7726
5.02333	7725
5.02400	7723
5.02467	7722
5.02533	7721
5.02600	7719
5.02667	7717
5.02733	7716
5.02800	7714
5.02867	7712
5.02933	7710
5.03000	7708
5.03067	7706
5.03133	7704
5.03200	7701
5.03267	7699
5.03333	7697
5.03400	7694
5.03467	7692
5.03533	7689
5.03600	7686
5.03667	7683
5.03733	7681
5.03800	7678
5.03867	7675
5.03933	7672
5.04000	7669
5.04067	7666
5.04133	7663
5.04200	7660
5.04267	7657
5.04333	7653
5.04400	7650
5.04467	7647
5.04533	7643
5.04600	7640
5.04667	7636
5.04733	7633
5.04800	7629
5.04867	7626
5.04933	7622
5.05000	7619
5.05067	7615
5.05133	7611
5.05200	7608
5.05267	7604
5.05333	7600
5.05400	7596
5.05467	7592
5.05533	7588
5.05600	7583
5.05667	7579
5.05733	7575
5.05800	7571
5.05867	7566
5.05933	7562
5.06000	7557
5.06067	7553
5.06133	7548
5.06200	7544
5.06267	7539
5.06333	7535
5.06400	7530
5.06467	7526
5.06533	7521
5.06600	7517
5.06667	7513
5.06733	7508
5.06800	7504
5.06867	7499
5.06933	7495
5.07000	7490
5.07067	7486
5.07133	7481
5.07200	7477
5.07267	7472
5.07333	7468
5.07400	7464
5.07467	7459
5.07533	7455
5.07600	7451
5.07667	7447
5.07733	7443
5.07800	7439
5.07867	7435
5.07933	7431
5.08000	7427
5.08067	7423
5.08133	7419
5.08200	7415
5.08267	7411
5.08333	7407
5.08400	7404
5.08467	7400
5.08533	7396
5.08600	7393
5.08667	7389
5.08733	7385
5.08800	7382
5.08867	7378
5.08933	7375
5.09000	7372
5.09067	7368
5.09133	7365
5.09200	7362
5.09267	7358
5.09333	7355
5.09400	7352
5.09467	7349
5.09533	7346
5.09600	7343
5.09667	7340
5.09733	7337
5.09800	7334
5.09867	7331
5.09933	7328
5.10000	7325
5.10067	7322
5.10133	7319
5.10200	7317
5.10267	7314
5.10333	7311
5.10400	7308
5.10467	7306
5.10533	7303
5.10600	7300
5.10667	7298
5.10733	7295
5.10800	7293
5.10867	7290
5.10933	7288
5.11000	7286
5.11067	7283
5.11133	7281
5.11200	7279
5.11267	7276
5.11333	7274
5.11400	7272
5.11467	7270
5.11533	7268
5.11600	7266
5.11667	7264
5.11733	7262
5.11800	7259
5.11867	7257
5.11933	7255
5.12000	7253
5.12067	7251
5.12133	7250
5.12200	7248
5.12267	7246
5.12333	7244
5.12400	7243
5.12467	7241
5.12533	7239
5.12600	7238
5.12667	7236
5.12733	7235
5.12800	7234
5.12867	7233
5.12933	7231
5.13000	7230
5.13067	7229
5.13133	7228
5.13200	7227
5.13267	7226
5.13333	7225
5.13400	7224
5.13467	7223
5.13533	7222
5.13600	7221
5.13667	7221
5.13733	7220
5.13800	7219
5.13867	7219
5.13933	7218
5.14000	7218
5.14067	7218
5.14133	7217
5.14200	7217
5.14267	7217
5.14333	7217
5.14400	7217
5.14467	7217
5.14533	7217
5.14600	7217
5.14667	7217
5.14733	7218
5.14800	7218
5.14867	7218
5.14933	7219
5.15000	7219
5.15067	7219
5.15133	7220
5.15200	7220
5.15267	7220
5.15333	7221
5.15400	7221
5.15467	7222
5.15533	7223
5.15600	7223
5.15667	7224
5.15733	7225
5.15800	7226
5.15867	7226
5.15933	7227
5.16000	7228
5.16067	7229
5.16133	7229
5.16200	7230
5.16267	7231
5.16333	7232
5.16400	7232
5.16467	7233
5.16533	7234
5.16600	7235
5.16667	7235
5.16733	7236
5.16800	7237
5.16867	7237
5.16933	7238
5.17000	7238
5.17067	7239
5.17133	7240
5.17200	7240
5.17267	7241
5.17333	7242
5.17400	7242
5.17467	7243
5.17533	7244
5.17600	7244
5.17667	7245
5.17733	7245
5.17800	7246
5.17867	7247
5.17933	7247
5.18000	7248
5.18067	7249
5.18133	7249
5.18200	7250
5.18267	7251
5.18333	7251
5.18400	7252
5.18467	7253
5.18533	7254
5.18600	7254
5.18667	7255
5.18733	7256
5.18800	7256
5.18867	7257
5.18933	7258
5.19000	7258
5.19067	7259
5.19133	7259
5.19200	7260
5.19267	7261
5.19333	7261
5.19400	7262
5.19467	7262
5.19533	7263
5.19600	7263
5.19667	7264
5.19733	7264
5.19800	7264
5.19867	7265
5.19933	7265
5.20000	7266
5.20067	7266
5.20133	7266
5.20200	7266
5.20267	7266
5.20333	7267
5.20400	7267
5.20467	7267
5.20533	7266
5.20600	7266
5.20667	7266
5.20733	7266
5.20800	7266
5.20867	7265
5.20933	7265
5.21000	7265
5.21067	7265
5.21133	7264
5.21200	7264
5.21267	7263
5.21333	7263
5.21400	7263
5.21467	7262
5.21533	7261
5.21600	7261
5.21667	7260
5.21733	7260
5.21800	7259
5.21867	7258
5.21933	7257
5.22000	7256
5.22067	7255
5.22133	7254
5.22200	7253
5.22267	7252
5.22333	7251
5.22400	7250
5.22467	7249
5.22533	7248
5.22600	7246
5.22667	7245
5.22733	7244
5.22800	7243
5.22867	7241
5.22933	7240
5.23000	7239
5.23067	7237
5.23133	7236
5.23200	7234
5.23267	7232
5.23333	7231
5.23400	7229
5.23467	7227
5.23533	7225
5.23600	7223
5.23667	7221
5.23733	7219
5.23800	7217
5.23867	7215
5.23933	7213
5.24000	7211
5.24067	7209
5.24133	7206
5.24200	7204
5.24267	7202
5.24333	7199
5.24400	7197
5.24467	7195
5.24533	7192
5.24600	7190
5.24667	7187
5.24733	7184
5.24800	7182
5.24867	7179
5.24933	7176
5.25000	7173
5.25067	7171
5.25133	7168
5.25200	7165
5.25267	7162
5.25333	7159
5.25400	7156
5.25467	7153
5.25533	7150
5.25600	7146
5.25667	7143
5.25733	7140
5.25800	7137
5.25867	7133
5.25933	7130
5.26000	7127
5.26067	7123
5.26133	7120
5.26200	7116
5.26267	7113
5.26333	7110
5.26400	7106
5.26467	7103
5.26533	7100
5.26600	7096
5.26667	7093
5.26733	7090
5.26800	7086
5.26867	7083
5.26933	7080
5.27000	7077
5.27067	7073
5.27133	7070
5.27200	7067
5.27267	7064
5.27333	7060
5.27400	7057
5.27467	7054
5.27533	7050
5.27600	7047
5.27667	7044
5.27733	7040
5.27800	7037
5.27867	7034
5.27933	7030
5.28000	7027
5.28067	7024
5.28133	7020
5.28200	7017
5.28267	7014
5.28333	7011
5.28400	7008
5.28467	7005
5.28533	7002
5.28600	6999
5.28667	6995
5.28733	6992
5.28800	6989
5.28867	6986
5.28933	6983
5.29000	6980
5.29067	6977
5.29133	6974
5.29200	6971
5.29267	6968
5.29333	6965
5.29400	6962
5.29467	6959
5.29533	6956
5.29600	6953
5.29667	6950
5.29733	6948
5.29800	6945
5.29867	6942
5.29933	6939
5.30000	6937
5.30067	6934
5.30133	6931
5.30200	6929
5.30267	6926
5.30333	6923
5.30400	6921
5.30467	6918
5.30533	6916
5.30600	6913
5.30667	6911
5.30733	6908
5.30800	6906
5.30867	6904
5.30933	6901
5.31000	6899
5.31067	6897
5.31133	6894
5.31200	6892
5.31267	6890
5.31333	6888
5.31400	6886
5.31467	6884
5.31533	6882
5.31600	6880
5.31667	6878
5.31733	6876
5.31800	6874
5.31867	6872
5.31933	6870
5.32000	6868
5.32067	6866
5.32133	6864
5.32200	6862
5.32267	6860
5.32333	6858
5.32400	6857
5.32467	6855
5.32533	6853
5.32600	6851
5.32667	6849
5.32733	6848
5.32800	6846
5.32867	6845
5.32933	6843
5.33000	6841
5.33067	6840
5.33133	6839
5.33200	6837
5.33267	6836
5.33333	6835
5.33400	6833
5.33467	6832
5.33533	6831
5.33600	6830
5.33667	6829
5.33733	6828
5.33800	6827
5.33867	6827
5.33933	6826
5.34000	6825
5.34067	6824
5.34133	6824
5.34200	6823
5.34267	6823
5.34333	6822
5.34400	6822
5.34467	6821
5.34533	6821
5.34600	6820
5.34667	6820
5.34733	6820
5.34800	6819
5.34867	6819
5.34933	6819
5.35000	6819
5.35067	6818
5.35133	6818
5.35200	6818
5.35267	6818
5.35333	6818
5.35400	6818
5.35467	6818
5.35533	6818
5.35600	6818
5.35667	6818
5.35733	6818
5.35800	6818
5.35867	6819
5.35933	6819
5.36000	6819
5.36067	6819
5.36133	6819
5.36200	6820
5.36267	6820
5.36333	6820
5.36400	6820
5.36467	6821
5.36533	6821
5.36600	6821
5.36667	6821
5.36733	6821
5.36800	6822
5.36867	6822
5.36933	6822
5.37000	6822
5.37067	6822
5.37133	6823
5.37200	6823
5.37267	6823
5.37333	6823
5.37400	6823
5.37467	6823
5.37533	6823
5.37600	6823
5.37667	6824
5.37733	6824
5.37800	6824
5.37867	6824
5.37933	6824
5.38000	6824
5.38067	6824
5.38133	6824
5.38200	6824
5.38267	6825
5.38333	6825
5.38400	6825
5.38467	6825
5.38533	6825
5.38600	6825
5.38667	6826
5.38733	6826
5.38800	6826
5.38867	6826
5.38933	6826
5.39000	6826
5.39067	6826
5.39133	6826
5.39200	6826
5.39267	6826
5.39333	6826
5.39400	6826
5.39467	6826
5.39533	6825
5.39600	6825
5.39667	6825
5.39733	6825
5.39800	6825
5.39867	6824
5.39933	6824
5.40000	6824
5.40067	6823
5.40133	6823
5.40200	6822
5.40267	6822
5.40333	6822
5.40400	6821
5.40467	6820
5.40533	6820
5.40600	6819
5.40667	6819
5.40733	6818
5.40800	6817
5.40867	6817
5.40933	6816
5.41000	6815
5.41067	6814
5.41133	6813
5.41200	6812
5.41267	6811
5.41333	6810
5.41400	6809
5.41467	6808
5.41533	6807
5.41600	6806
5.41667	6805
5.41733	6804
5.41800	6802
5.41867	6801
5.41933	6800
5.42000	6799
5.42067	6797
5.42133	6796
5.42200	6795
5.42267	6793
5.42333	6792
5.42400	6791
5.42467	6789
5.42533	6788
5.42600	6786
5.42667	6785
5.42733	6784
5.42800	6782
5.42867	6781
5.42933	6779
5.43000	6778
5.43067	6776
5.43133	6775
5.43200	6773
5.43267	6772
5.43333	6770
5.43400	6769
5.43467	6767
5.43533	6766
5.43600	6764
5.43667	6763
5.43733	6761
5.43800	6760
5.43867	6758
5.43933	6757
5.44000	6755
5.44067	6754
5.44133	6752
5.44200	6751
5.44267	6749
5.44333	6748
5.44400	6746
5.44467	6745
5.44533	6743
5.44600	6742
5.44667	6740
5.44733	6739
5.44800	6737
5.44867	6735
5.44933	6734
5.45000	6732
5.45067	6730
5.45133	6729
5.45200	6727
5.45267	6725
5.45333	6723
5.45400	6721
5.45467	6720
5.45533	6718
5.45600	6716
5.45667	6714
5.45733	6712
5.45800	6710
5.45867	6708
5.45933	6706
5.46000	6704
5.46067	6702
5.46133	6700
5.46200	6698
5.46267	6696
5.46333	6694
5.46400	6692
5.46467	6690
5.46533	6688
5.46600	6686
5.46667	6684
5.46733	6682
5.46800	6680
5.46867	6678
5.46933	6676
5.47000	6674
5.47067	6672
5.47133	6670
5.47200	6668
5.47267	6666
5.47333	6664
5.47400	6662
5.47467	6660
5.47533	6658
5.47600	6656
5.47667	6654
5.47733	6652
5.47800	6650
5.47867	6648
5.47933	6646
5.48000	6644
5.48067	6642
5.48133	6641
5.48200	6639
5.48267	6637
5.48333	6635
5.48400	6634
5.48467	6632
5.48533	6630
5.48600	6629
5.48667	6627
5.48733	6626
5.48800	6624
5.48867	6623
5.48933	6621
5.49000	6620
5.49067	6618
5.49133	6617
5.49200	6616
5.49267	6614
5.49333	6613
5.49400	6612
5.49467	6611
5.49533	6609
5.49600	6608
5.49667	6607
5.49733	6606
5.49800	6605
5.49867	6603
5.49933	6602
5.50000	6601
5.50067	6601
5.50133	6600
5.50200	6599
5.50267	6598
5.50333	6598
5.50400	6597
5.50467	6597
5.50533	6596
5.50600	6596
5.50667	6595
5.50733	6595
5.50800	6595
5.50867	6595
5.50933	6594
5.51000	6594
5.51067	6594
5.51133	6594
5.51200	6594
5.51267	6594
5.51333	6595
5.51400	6595
5.51467	6595
5.51533	6596
5.51600	6596
5.51667	6597
5.51733	6597
5.51800	6598
5.51867	6599
5.51933	6600
5.52000	6600
5.52067	6601
5.52133	6602
5.52200	6603
5.52267	6605
5.52333	6606
5.52400	6607
5.52467	6608
5.52533	6610
5.52600	6611
5.52667	6613
5.52733	6615
5.52800	6617
5.52867	6619
5.52933	6621
5.53000	6623
5.53067	6625
5.53133	6627
5.53200	6629
5.53267	6632
5.53333	6634
5.53400	6637
5.53467	6640
5.53533	6642
5.53600	6645
5.53667	6648
5.53733	6651
5.53800	6654
5.53867	6657
5.53933	6661
5.54000	6664
5.54067	6668
5.54133	6672
5.54200	6676
5.54267	6680
5.54333	6684
5.54400	6689
5.54467	6693
5.54533	6697
5.54600	6702
5.54667	6707
5.54733	6712
5.54800	6717
5.54867	6722
5.54933	6727
5.55000	6732
5.55067	6737
5.55133	6743
5.55200	6748
5.55267	6754
5.55333	6759
5.55400	6765
5.55467	6771
5.55533	6776
5.55600	6782
5.55667	6788
5.55733	6794
5.55800	6801
5.55867	6807
5.55933	6813
5.56000	6820
5.56067	6826
5.56133	6833
5.56200	6839
5.56267	6846
5.56333	6853
5.56400	6860
5.56467	6867
5.56533	6874
5.56600	6881
5.56667	6888
5.56733	6896
5.56800	6903
5.56867	6911
5.56933	6918
5.57000	6926
5.57067	6934
5.57133	6942
5.57200	6950
5.57267	6958
5.57333	6966
5.57400	6974
5.57467	6982
5.57533	6990
5.57600	6998
5.57667	7006
5.57733	7014
5.57800	7023
5.57867	7031
5.57933	7039
5.58000	7048
5.58067	7056
5.58133	7064
5.58200	7073
5.58267	7081
5.58333	7090
5.58400	7098
5.58467	7107
5.58533	7115
5.58600	7124
5.58667	7132
5.58733	7141
5.58800	7149
5.58867	7157
5.58933	7166
5.59000	7174
5.59067	7183
5.59133	7191
5.59200	7200
5.59267	7208
5.59333	7216
5.59400	7225
5.59467	7233
5.59533	7241
5.59600	7249
5.59667	7257
5.59733	7265
5.59800	7273
5.59867	7281
5.59933	7289
5.60000	7297
5.60067	7305
5.60133	7313
5.60200	7321
5.60267	7329
5.60333	7336
5.60400	7344
5.60467	7351
5.60533	7359
5.60600	7366
5.60667	7373
5.60733	7380
5.60800	7387
5.60867	7394
5.60933	7401
5.61000	7407
5.61067	7414
5.61133	7420
5.61200	7426
5.61267	7433
5.61333	7439
5.61400	7445
5.61467	7450
5.61533	7456
5.61600	7461
5.61667	7467
5.61733	7472
5.61800	7477
5.61867	7482
5.61933	7487
5.62000	7491
5.62067	7496
5.62133	7500
5.62200	7504
5.62267	7508
5.62333	7512
5.62400	7515
5.62467	7519
5.62533	7522
5.62600	7525
5.62667	7528
5.62733	7531
5.62800	7534
5.62867	7536
5.62933	7538
5.63000	7540
5.63067	7542
5.63133	7544
5.63200	7545
5.63267	7546
5.63333	7548
5.63400	7548
5.63467	7549
5.63533	7550
5.63600	7550
5.63667	7550
5.63733	7551
5.63800	7550
5.63867	7550
5.63933	7550
5.64000	7550
5.64067	7549
5.64133	7549
5.64200	7548
5.64267	7547
5.64333	7546
5.64400	7545
5.64467	7544
5.64533	7542
5.64600	7541
5.64667	7539
5.64733	7537
5.64800	7535
5.64867	7534
5.64933	7531
5.65000	7529
5.65067	7527
5.65133	7525
5.65200	7522
5.65267	7519
5.65333	7517
5.65400	7514
5.65467	7511
5.65533	7508
5.65600	7505
5.65667	7502
5.65733	7499
5.65800	7496
5.65867	7493
5.65933	7490
5.66000	7486
5.66067	7483
5.66133	7479
5.66200	7476
5.66267	7472
5.66333	7469
5.66400	7465
5.66467	7461
5.66533	7457
5.66600	7454
5.66667	7450
5.66733	7446
5.66800	7442
5.66867	7439
5.66933	7435
5.67000	7431
5.67067	7427
5.67133	7423
5.67200	7419
5.67267	7415
5.67333	7411
5.67400	7407
5.67467	7403
5.67533	7399
5.67600	7395
5.67667	7390
5.67733	7386
5.67800	7382
5.67867	7378
5.67933	7374
5.68000	7370
5.68067	7366
5.68133	7361
5.68200	7357
5.68267	7353
5.68333	7349
5.68400	7344
5.68467	7340
5.68533	7336
5.68600	7331
5.68667	7327
5.68733	7323
5.68800	7318
5.68867	7314
5.68933	7309
5.69000	7305
5.69067	7301
5.69133	7296
5.69200	7292
5.69267	7287
5.69333	7283
5.69400	7279
5.69467	7274
5.69533	7270
5.69600	7265
5.69667	7261
5.69733	7257
5.69800	7252
5.69867	7248
5.69933	7244
5.70000	7240
5.70067	7235
5.70133	7231
5.70200	7227
5.70267	7222
5.70333	7218
5.70400	7213
5.70467	7209
5.70533	7205
5.70600	7200
5.70667	7196
5.70733	7192
5.70800	7187
5.70867	7183
5.70933	7179
5.71000	7174
5.71067	7170
5.71133	7166
5.71200	7161
5.71267	7157
5.71333	7153
5.71400	7148
5.71467	7144
5.71533	7140
5.71600	7135
5.71667	7131
5.71733	7127
5.71800	7122
5.71867	7118
5.71933	7114
5.72000	7109
5.72067	7105
5.72133	7101
5.72200	7096
5.72267	7092
5.72333	7088
5.72400	7083
5.72467	7079
5.72533	7075
5.72600	7071
5.72667	7067
5.72733	7062
5.72800	7058
5.72867	7054
5.72933	7050
5.73000	7046
5.73067	7042
5.73133	7038
5.73200	7034
5.73267	7030
5.73333	7026
5.73400	7023
5.73467	7019
5.73533	7015
5.73600	7011
5.73667	7008
5.73733	7004
5.73800	7000
5.73867	6997
5.73933	6993
5.74000	6989
5.74067	6986
5.74133	6982
5.74200	6979
5.74267	6975
5.74333	6972
5.74400	6969
5.74467	6965
5.74533	6962
5.74600	6959
5.74667	6956
5.74733	6953
5.74800	6950
5.74867	6946
5.74933	6943
5.75000	6940
5.75067	6938
5.75133	6935
5.75200	6932
5.75267	6929
5.75333	6926
5.75400	6924
5.75467	6921
5.75533	6918
5.75600	6916
5.75667	6913
5.75733	6910
5.75800	6908
5.75867	6905
5.75933	6903
5.76000	6900
5.76067	6898
5.76133	6895
5.76200	6893
5.76267	6891
5.76333	6889
5.76400	6886
5.76467	6884
5.76533	6882
5.76600	6880
5.76667	6878
5.76733	6876
5.76800	6874
5.76867	6872
5.76933	6871
5.77000	6869
5.77067	6867
5.77133	6865
5.77200	6864
5.77267	6862
5.77333	6860
5.77400	6859
5.77467	6857
5.77533	6855
5.77600	6854
5.77667	6852
5.77733	6851
5.77800	6849
5.77867	6848
5.77933	6846
5.78000	6844
5.78067	6843
5.78133	6842
5.78200	6840
5.78267	6839
5.78333	6837
5.78400	6836
5.78467	6835
5.78533	6833
5.78600	6832
5.78667	6831
5.78733	6830
5.78800	6828
5.78867	6827
5.78933	6826
5.79000	6825
5.79067	6824
5.79133	6822
5.79200	6821
5.79267	6820
5.79333	6819
5.79400	6818
5.79467	6817
5.79533	6816
5.79600	6815
5.79667	6814
5.79733	6813
5.79800	6812
5.79867	6811
5.79933	6810
5.80000	6809
5.80067	6808
5.80133	6808
5.80200	6807
5.80267	6806
5.80333	6805
5.80400	6804
5.80467	6803
5.80533	6803
5.80600	6802
5.80667	6801
5.80733	6801
5.80800	6800
5.80867	6799
5.80933	6799
5.81000	6798
5.81067	6798
5.81133	6797
5.81200	6796
5.81267	6796
5.81333	6796
5.81400	6795
5.81467	6795
5.81533	6794
5.81600	6794
5.81667	6793
5.81733	6793
5.81800	6793
5.81867	6793
5.81933	6792
5.82000	6792
5.82067	6792
5.82133	6792
5.82200	6791
5.82267	6791
5.82333	6791
5.82400	6791
5.82467	6791
5.82533	6791
5.82600	6790
5.82667	6790
5.82733	6790
5.82800	6790
5.82867	6790
5.82933	6790
5.83000	6789
5.83067	6789
5.83133	6789
5.83200	6789
5.83267	6789
5.83333	6789
5.83400	6789
5.83467	6789
5.83533	6789
5.83600	6789
5.83667	6789
5.83733	6789
5.83800	6789
5.83867	6789
5.83933	6789
5.84000	6789
5.84067	6789
5.84133	6789
5.84200	6789
5.84267	6789
5.84333	6789
5.84400	6789
5.84467	6789
5.84533	6789
5.84600	6789
5.84667	6789
5.84733	6790
5.84800	6790
5.84867	6790
5.84933	6790
5.85000	6790
5.85067	6790
5.85133	6790
5.85200	6790
5.85267	6790
5.85333	6790
5.85400	6790
5.85467	6790
5.85533	6790
5.85600	6790
5.85667	6790
5.85733	6790
5.85800	6790
5.85867	6790
5.85933	6790
5.86000	6790
5.86067	6790
5.86133	6790
5.86200	6790
5.86267	6790
5.86333	6790
5.86400	6790
5.86467	6790
5.86533	6790
5.86600	6790
5.86667	6790
5.86733	6790
5.86800	6790
5.86867	6790
5.86933	6790
5.87000	6790
5.87067	6790
5.87133	6789
5.87200	6789
5.87267	6789
5.87333	6789
5.87400	6789
5.87467	6788
5.87533	6788
5.87600	6788
5.87667	6787
5.87733	6787
5.87800	6787
5.87867	6786
5.87933	6786
5.88000	6785
5.88067	6785
5.88133	6785
5.88200	6784
5.88267	6784
5.88333	6783
5.88400	6783
5.88467	6783
5.88533	6782
5.88600	6782
5.88667	6782
5.88733	6781
5.88800	6781
5.88867	6780
5.88933	6780
5.89000	6779
5.89067	6779
5.89133	6778
5.89200	6778
5.89267	6777
5.89333	6777
5.89400	6776
5.89467	6776
5.89533	6775
5.89600	6774
5.89667	6774
5.89733	6773
5.89800	6772
5.89867	6772
5.89933	6771
5.90000	6771
5.90067	6770
5.90133	6769
5.90200	6769
5.90267	6768
5.90333	6768
5.90400	6767
5.90467	6766
5.90533	6766
5.90600	6765
5.90667	6764
5.90733	6764
5.90800	6763
5.90867	6762
5.90933	6761
5.91000	6761
5.91067	6760
5.91133	6759
5.91200	6758
5.91267	6757
5.91333	6757
5.91400	6756
5.91467	6755
5.91533	6754
5.91600	6753
5.91667	6752
5.91733	6752
5.91800	6751
5.91867	6750
5.91933	6749
5.92000	6748
5.92067	6748
5.92133	6747
5.92200	6746
5.92267	6745
5.92333	6744
5.92400	6743
5.92467	6742
5.92533	6741
5.92600	6740
5.92667	6739
5.92733	6738
5.92800	6737
5.92867	6736
5.92933	6735
5.93000	6734
5.93067	6733
5.93133	6732
5.93200	6731
5.93267	6730
5.93333	6730
5.93400	6729
5.93467	6728
5.93533	6727
5.93600	6726
5.93667	6725
5.93733	6724
5.93800	6723
5.93867	6722
5.93933	6721
5.94000	6720
5.94067	6719
5.94133	6718
5.94200	6717
5.94267	6716
5.94333	6715
5.94400	6714
5.94467	6713
5.94533	6712
5.94600	6711
5.94667	6710
5.94733	6708
5.94800	6707
5.94867	6706
5.94933	6705
5.95000	6705
5.95067	6704
5.95133	6703
5.95200	6702
5.95267	6701
5.95333	6700
5.95400	6699
5.95467	6698
5.95533	6697
5.95600	6696
5.95667	6695
5.95733	6694
5.95800	6693
5.95867	6692
5.95933	6691
5.96000	6690
5.96067	6689
5.96133	6688
5.96200	6687
5.96267	6687
5.96333	6686
5.96400	6685
5.96467	6684
5.96533	6683
5.96600	6682
5.96667	6682
5.96733	6681
5.96800	6680
5.96867	6679
5.96933	6678
5.97000	6678
5.97067	6677
5.97133	6676
5.97200	6675
5.97267	6674
5.97333	6673
5.97400	6673
5.97467	6672
5.97533	6671
5.97600	6670
5.97667	6669
5.97733	6669
5.97800	6668
5.97867	6667
5.97933	6666
5.98000	6666
5.98067	6665
5.98133	6664
5.98200	6663
5.98267	6663
5.98333	6662
5.98400	6661
5.98467	6660
5.98533	6660
5.98600	6659
5.98667	6658
5.98733	6658
5.98800	6657
5.98867	6656
5.98933	6656
5.99000	6655
5.99067	6654
5.99133	6654
5.99200	6653
5.99267	6653
5.99333	6652
5.99400	6652
5.99467	6651
5.99533	6651
5.99600	6651
5.99667	6650
5.99733	6650
5.99800	6650
5.99867	6649
5.99933	6649
6.00000	6649
6.00067	6649
6.00133	6649
6.00200	6648
6.00267	6648
6.00333	6648
6.00400	6648
6.00467	6648
6.00533	6648
6.00600	6648
6.00667	6648
6.00733	6648
6.00800	6648
6.00867	6648
6.00933	6648
6.01000	6648
6.01067	6649
6.01133	6649
6.01200	6649
6.01267	6649
6.01333	6649
6.01400	6649
6.01467	6650
6.01533	6650
6.01600	6650
6.01667	6650
6.01733	6651
6.01800	6651
6.01867	6651
6.01933	6652
6.02000	6652
6.02067	6652
6.02133	6653
6.02200	6653
6.02267	6653
6.02333	6654
6.02400	6654
6.02467	6655
6.02533	6655
6.02600	6655
6.02667	6656
6.02733	6656
6.02800	6656
6.02867	6656
6.02933	6657
6.03000	6657
6.03067	6657
6.03133	6657
6.03200	6657
6.03267	6657
6.03333	6658
6.03400	6658
6.03467	6658
6.03533	6658
6.03600	6658
6.03667	6659
6.03733	6659
6.03800	6659
6.03867	6659
6.03933	6660
6.04000	6660
6.04067	6660
6.04133	6661
6.04200	6661
6.04267	6662
6.04333	6662
6.04400	6663
6.04467	6663
6.04533	6664
6.04600	6664
6.04667	6665
6.04733	6666
6.04800	6666
6.04867	6667
6.04933	6668
6.05000	6669
6.05067	6669
6.05133	6670
6.05200	6671
6.05267	6672
6.05333	6673
6.05400	6674
6.05467	6675
6.05533	6676
6.05600	6677
6.05667	6678
6.05733	6679
6.05800	6680
6.05867	6681
6.05933	6682
6.06000	6683
6.06067	6684
6.06133	6686
6.06200	6687
6.06267	6688
6.06333	6689
6.06400	6690
6.06467	6692
6.06533	6693
6.06600	6694
6.06667	6696
6.06733	6697
6.06800	6698
6.06867	6700
6.06933	6701
6.07000	6702
6.07067	6703
6.07133	6705
6.07200	6706
6.07267	6707
6.07333	6709
6.07400	6710
6.07467	6711
6.07533	6713
6.07600	6714
6.07667	6715
6.07733	6716
6.07800	6718
6.07867	6719
6.07933	6720
6.08000	6721
6.08067	6723
6.08133	6724
6.08200	6725
6.08267	6726
6.08333	6727
6.08400	6729
6.08467	6730
6.08533	6731
6.08600	6732
6.08667	6733
6.08733	6734
6.08800	6735
6.08867	6736
6.08933	6737
6.09000	6738
6.09067	6739
6.09133	6740
6.09200	6741
6.09267	6742
6.09333	6743
6.09400	6744
6.09467	6745
6.09533	6745
6.09600	6746
6.09667	6747
6.09733	6748
6.09800	6748
6.09867	6749
6.09933	6749
6.10000	6750
6.10067	6751
6.10133	6751
6.10200	6752
6.10267	6752
6.10333	6753
6.10400	6753
6.10467	6754
6.10533	6755
6.10600	6755
6.10667	6756
6.10733	6756
6.10800	6757
6.10867	6757
6.10933	6757
6.11000	6758
6.11067	6758
6.11133	6758
6.11200	6758
6.11267	6759
6.11333	6759
6.11400	6759
6.11467	6759
6.11533	6759
6.11600	6759
6.11667	6759
6.11733	6759
6.11800	6759
6.11867	6759
6.11933	6759
6.12000	6759
6.12067	6759
6.12133	6759
6.12200	6759
6.12267	6759
6.12333	6759
6.12400	6758
6.12467	6758
6.12533	6758
6.12600	6757
6.12667	6757
6.12733	6756
6.12800	6756
6.12867	6755
6.12933	6755
6.13000	6754
6.13067	6754
6.13133	6753
6.13200	6753
6.13267	6752
6.13333	6752
6.13400	6751
6.13467	6750
6.13533	6750
6.13600	6749
6.13667	6748
6.13733	6747
6.13800	6747
6.13867	6746
6.13933	6745
6.14000	6744
6.14067	6743
6.14133	6742
6.14200	6741
6.14267	6740
6.14333	6738
6.14400	6737
6.14467	6736
6.14533	6735
6.14600	6734
6.14667	6732
6.14733	6731
6.14800	6730
6.14867	6728
6.14933	6727
6.15000	6725
6.15067	6724
6.15133	6722
6.15200	6721
6.15267	6720
6.15333	6718
6.15400	6717
6.15467	6715
6.15533	6714
6.15600	6712
6.15667	6711
6.15733	6709
6.15800	6708
6.15867	6706
6.15933	6705
6.16000	6704
6.16067	6702
6.16133	6701
6.16200	6699
6.16267	6698
6.16333	6696
6.16400	6695
6.16467	6693
6.16533	6692
6.16600	6690
6.16667	6689
6.16733	6687
6.16800	6686
6.16867	6684
6.16933	6683
6.17000	6681
6.17067	6680
6.17133	6679
6.17200	6677
6.17267	6676
6.17333	6674
6.17400	6673
6.17467	6672
6.17533	6670
6.17600	6669
6.17667	6668
6.17733	6666
6.17800	6665
6.17867	6663
6.17933	6662
6.18000	6660
6.18067	6659
6.18133	6657
6.18200	6656
6.18267	6654
6.18333	6653
6.18400	6651
6.18467	6650
6.18533	6648
6.18600	6647
6.18667	6645
6.18733	6644
6.18800	6643
6.18867	6641
6.18933	6640
6.19000	6639
6.19067	6637
6.19133	6636
6.19200	6635
6.19267	6633
6.19333	6632
6.19400	6631
6.19467	6630
6.19533	6628
6.19600	6627
6.19667	6626
6.19733	6625
6.19800	6623
6.19867	6622
6.19933	6621
6.20000	6620
6.20067	6618
6.20133	6617
6.20200	6616
6.20267	6615
6.20333	6614
6.20400	6613
6.20467	6611
6.20533	6610
6.20600	6609
6.20667	6608
6.20733	6607
6.20800	6606
6.20867	6605
6.20933	6603
6.21000	6602
6.21067	6601
6.21133	6600
6.21200	6599
6.21267	6599
6.21333	6598
6.21400	6597
6.21467	6596
6.21533	6595
6.21600	6594
6.21667	6593
6.21733	6592
6.21800	6592
6.21867	6591
6.21933	6590
6.22000	6589
6.22067	6588
6.22133	6588
6.22200	6587
6.22267	6586
6.22333	6585
6.22400	6585
6.22467	6584
6.22533	6583
6.22600	6583
6.22667	6582
6.22733	6581
6.22800	6581
6.22867	6580
6.22933	6580
6.23000	6579
6.23067	6578
6.23133	6578
6.23200	6577
6.23267	6577
6.23333	6576
6.23400	6576
6.23467	6575
6.23533	6575
6.23600	6574
6.23667	6574
6.23733	6574
6.23800	6573
6.23867	6573
6.23933	6573
6.24000	6572
6.24067	6572
6.24133	6572
6.24200	6571
6.24267	6571
6.24333	6571
6.24400	6571
6.24467	6571
6.24533	6571
6.24600	6570
6.24667	6570
6.24733	6570
6.24800	6570
6.24867	6570
6.24933	6570
6.25000	6570
6.25067	6570
6.25133	6570
6.25200	6570
6.25267	6570
6.25333	6570
6.25400	6570
6.25467	6570
6.25533	6570
6.25600	6570
6.25667	6570
6.25733	6570
6.25800	6570
6.25867	6570
6.25933	6570
6.26000	6570
6.26067	6570
6.26133	6570
6.26200	6570
6.26267	6570
6.26333	6570
6.26400	6570
6.26467	6570
6.26533	6570
6.26600	6570
6.26667	6571
6.26733	6571
6.26800	6571
6.26867	6571
6.26933	6571
6.27000	6571
6.27067	6571
6.27133	6571
6.27200	6571
6.27267	6571
6.27333	6571
6.27400	6571
6.27467	6571
6.27533	6571
6.27600	6571
6.27667	6571
6.27733	6571
6.27800	6571
6.27867	6571
6.27933	6571
6.28000	6571
6.28067	6570
6.28133	6570
6.28200	6570
6.28267	6570
6.28333	6570
6.28400	6569
6.28467	6569
6.28533	6569
6.28600	6569
6.28667	6568
6.28733	6568
6.28800	6568
6.28867	6568
6.28933	6567
6.29000	6567
6.29067	6567
6.29133	6567
6.29200	6566
6.29267	6566
6.29333	6566
6.29400	6566
6.29467	6566
6.29533	6565
6.29600	6565
6.29667	6565
6.29733	6565
6.29800	6565
6.29867	6565
6.29933	6565
6.30000	6565
6.30067	6565
6.30133	6565
6.30200	6564
6.30267	6564
6.30333	6564
6.30400	6564
6.30467	6565
6.30533	6565
6.30600	6565
6.30667	6565
6.30733	6565
6.30800	6565
6.30867	6565
6.30933	6565
6.31000	6565
6.31067	6565
6.31133	6566
6.31200	6566
6.31267	6566
6.31333	6566
6.31400	6566
6.31467	6566
6.31533	6567
6.31600	6567
6.31667	6567
6.31733	6567
6.31800	6567
6.31867	6567
6.31933	6567
6.32000	6568
6.32067	6568
6.32133	6568
6.32200	6568
6.32267	6568
6.32333	6568
6.32400	6568
6.32467	6569
6.32533	6569
6.32600	6569
6.32667	6569
6.32733	6569
6.32800	6569
6.32867	6569
6.32933	6568
6.33000	6568
6.33067	6568
6.33133	6568
6.33200	6568
6.33267	6568
6.33333	6567
6.33400	6567
6.33467	6567
6.33533	6567
6.33600	6566
6.33667	6566
6.33733	6566
6.33800	6565
6.33867	6565
6.33933	6565
6.34000	6564
6.34067	6564
6.34133	6563
6.34200	6563
6.34267	6563
6.34333	6563
6.34400	6562
6.34467	6562
6.34533	6562
6.34600	6561
6.34667	6561
6.34733	6561
6.34800	6560
6.34867	6560
6.34933	6560
6.35000	6559
6.35067	6559
6.35133	6558
6.35200	6558
6.35267	6557
6.35333	6557
6.35400	6556
6.35467	6556
6.35533	6555
6.35600	6555
6.35667	6554
6.35733	6554
6.35800	6553
6.35867	6553
6.35933	6552
6.36000	6552
6.36067	6551
6.36133	6551
6.36200	6550
6.36267	6550
6.36333	6549
6.36400	6549
6.36467	6549
6.36533	6548
6.36600	6548
6.36667	6547
6.36733	6547
6.36800	6547
6.36867	6546
6.36933	6546
6.37000	6546
6.37067	6545
6.37133	6545
6.37200	6545
6.37267	6545
6.37333	6544
6.37400	6544
6.37467	6544
6.37533	6544
6.37600	6544
6.37667	6544
6.37733	6543
6.37800	6543
6.37867	6543
6.37933	6543
6.38000	6543
6.38067	6543
6.38133	6543
6.38200	6543
6.38267	6543
6.38333	6543
6.38400	6543
6.38467	6543
6.38533	6542
6.38600	6542
6.38667	6542
6.38733	6542
6.38800	6542
6.38867	6542
6.38933	6542
6.39000	6542
6.39067	6541
6.39133	6541
6.39200	6541
6.39267	6541
6.39333	6541
6.39400	6541
6.39467	6541
6.39533	6540
6.39600	6540
6.39667	6540
6.39733	6540
6.39800	6539
6.39867	6539
6.39933	6539

