[Header]
Application Name	LabSolutions
Version	5.73
Data File Name	C:\LabSolutions\Data\Project1\stephen\2016-01-04\57.gcd
Output Date	1/5/2016
Output Time	4:51:39 PM

[Configuration]
Instrument Name	WEISSTA-PC-Instrument1
Instrument #	1
Line #	1
# of Detectors	1
Detector ID	DET#2
Detector Name	DFID1
# of Channels	1

[Chromatogram (Ch1)]
Interval(msec)	40
# of Points	9599
Start Time(min)	0.001
End Time(min)	6.399
R.Time (min)	Intensity
0.00067	-54
0.00133	-54
0.00200	-54
0.00267	-54
0.00333	-54
0.00400	-54
0.00467	-53
0.00533	-53
0.00600	-53
0.00667	-52
0.00733	-52
0.00800	-51
0.00867	-50
0.00933	-49
0.01000	-48
0.01067	-46
0.01133	-45
0.01200	-43
0.01267	-41
0.01333	-38
0.01400	-36
0.01467	-33
0.01533	-31
0.01600	-28
0.01667	-25
0.01733	-22
0.01800	-19
0.01867	-16
0.01933	-13
0.02000	-11
0.02067	-8
0.02133	-6
0.02200	-4
0.02267	-1
0.02333	1
0.02400	2
0.02467	4
0.02533	6
0.02600	7
0.02667	8
0.02733	9
0.02800	10
0.02867	11
0.02933	11
0.03000	12
0.03067	12
0.03133	12
0.03200	12
0.03267	12
0.03333	12
0.03400	12
0.03467	12
0.03533	11
0.03600	11
0.03667	10
0.03733	10
0.03800	9
0.03867	9
0.03933	8
0.04000	7
0.04067	6
0.04133	6
0.04200	5
0.04267	4
0.04333	3
0.04400	2
0.04467	2
0.04533	1
0.04600	-0
0.04667	-1
0.04733	-2
0.04800	-3
0.04867	-4
0.04933	-5
0.05000	-5
0.05067	-6
0.05133	-7
0.05200	-8
0.05267	-9
0.05333	-9
0.05400	-10
0.05467	-11
0.05533	-12
0.05600	-12
0.05667	-13
0.05733	-13
0.05800	-14
0.05867	-15
0.05933	-15
0.06000	-16
0.06067	-16
0.06133	-17
0.06200	-17
0.06267	-18
0.06333	-18
0.06400	-19
0.06467	-19
0.06533	-20
0.06600	-20
0.06667	-20
0.06733	-21
0.06800	-21
0.06867	-21
0.06933	-22
0.07000	-22
0.07067	-22
0.07133	-22
0.07200	-23
0.07267	-23
0.07333	-23
0.07400	-23
0.07467	-24
0.07533	-24
0.07600	-24
0.07667	-24
0.07733	-24
0.07800	-25
0.07867	-25
0.07933	-25
0.08000	-25
0.08067	-25
0.08133	-25
0.08200	-25
0.08267	-26
0.08333	-26
0.08400	-26
0.08467	-25
0.08533	-21
0.08600	-15
0.08667	-6
0.08733	12
0.08800	40
0.08867	80
0.08933	152
0.09000	252
0.09067	386
0.09133	567
0.09200	791
0.09267	1065
0.09333	1396
0.09400	1758
0.09467	2188
0.09533	2675
0.09600	3215
0.09667	3823
0.09733	4463
0.09800	5138
0.09867	5856
0.09933	6661
0.10000	7649
0.10067	8755
0.10133	9955
0.10200	11250
0.10267	12602
0.10333	14061
0.10400	15600
0.10467	17125
0.10533	18661
0.10600	20200
0.10667	21701
0.10733	23216
0.10800	24695
0.10867	26129
0.10933	27577
0.11000	28986
0.11067	30344
0.11133	31639
0.11200	32877
0.11267	34098
0.11333	35277
0.11400	36422
0.11467	37563
0.11533	38650
0.11600	39682
0.11667	40657
0.11733	41567
0.11800	42398
0.11867	43138
0.11933	43811
0.12000	44453
0.12067	45086
0.12133	45660
0.12200	46159
0.12267	46599
0.12333	46991
0.12400	47347
0.12467	47673
0.12533	47942
0.12600	48147
0.12667	48279
0.12733	48341
0.12800	48344
0.12867	48300
0.12933	48213
0.13000	48120
0.13067	48238
0.13133	49376
0.13200	53974
0.13267	68018
0.13333	103640
0.13400	183318
0.13467	343123
0.13533	627623
0.13600	1082635
0.13667	1751198
0.13733	2667905
0.13800	3858329
0.13867	5337606
0.13933	7113248
0.14000	9186355
0.14067	11554585
0.14133	14213456
0.14200	17158946
0.14267	20386659
0.14333	23891646
0.14400	27665925
0.14467	31697791
0.14533	35972301
0.14600	40474266
0.14667	45186057
0.14733	50087515
0.14800	55155600
0.14867	60365871
0.14933	65693314
0.15000	71114458
0.15067	76607976
0.15133	82154792
0.15200	87737749
0.15267	93341923
0.15333	98953868
0.15400	104560271
0.15467	110148710
0.15533	115708197
0.15600	121228770
0.15667	126701543
0.15733	132118063
0.15800	137470598
0.15867	142751449
0.15933	147953631
0.16000	153070371
0.16067	158095322
0.16133	163022478
0.16200	167846641
0.16267	172562996
0.16333	177167081
0.16400	181654773
0.16467	186022389
0.16533	190266512
0.16600	194383573
0.16667	198370580
0.16733	202224817
0.16800	205943325
0.16867	209522922
0.16933	212960482
0.17000	216252613
0.17067	219395623
0.17133	222385277
0.17200	225217237
0.17267	227885960
0.17333	230385913
0.17400	232710697
0.17467	234854027
0.17533	236809697
0.17600	238572412
0.17667	240137699
0.17733	241502541
0.17800	242664960
0.17867	243624299
0.17933	244380807
0.18000	244935885
0.18067	245291873
0.18133	245451877
0.18200	245419829
0.18267	245200109
0.18333	244797808
0.18400	244218384
0.18467	243467748
0.18533	242551983
0.18600	241477457
0.18667	240250439
0.18733	238877421
0.18800	237364789
0.18867	235719122
0.18933	233946980
0.19000	232055134
0.19067	230050171
0.19133	227938680
0.19200	225727109
0.19267	223421927
0.19333	221029406
0.19400	218555767
0.19467	216007108
0.19533	213389415
0.19600	210708572
0.19667	207970323
0.19733	205180267
0.19800	202343818
0.19867	199466228
0.19933	196552533
0.20000	193607629
0.20067	190636201
0.20133	187642800
0.20200	184631832
0.20267	181607627
0.20333	178574392
0.20400	175536147
0.20467	172496706
0.20533	169459777
0.20600	166429038
0.20667	163408126
0.20733	160400300
0.20800	157408172
0.20867	154433748
0.20933	151478632
0.21000	148544197
0.21067	145631713
0.21133	142742414
0.21200	139877523
0.21267	137038260
0.21333	134225814
0.21400	131441347
0.21467	128685987
0.21533	125960820
0.21600	123266866
0.21667	120605095
0.21733	117976403
0.21800	115381629
0.21867	112821534
0.21933	110296812
0.22000	107808082
0.22067	105355897
0.22133	102940733
0.22200	100563007
0.22267	98223072
0.22333	95921219
0.22400	93657679
0.22467	91432629
0.22533	89246187
0.22600	87098422
0.22667	84989357
0.22733	82918970
0.22800	80887192
0.22867	78893915
0.22933	76938994
0.23000	75022249
0.23067	73143467
0.23133	71302405
0.23200	69498794
0.23267	67732331
0.23333	66002695
0.23400	64309539
0.23467	62652498
0.23533	61031186
0.23600	59445200
0.23667	57894118
0.23733	56377507
0.23800	54894916
0.23867	53445885
0.23933	52029943
0.24000	50646609
0.24067	49295396
0.24133	47975808
0.24200	46687345
0.24267	45429503
0.24333	44201773
0.24400	43003645
0.24467	41834603
0.24533	40694132
0.24600	39581717
0.24667	38496841
0.24733	37438987
0.24800	36407640
0.24867	35402285
0.24933	34422409
0.25000	33467502
0.25067	32537059
0.25133	31630577
0.25200	30747559
0.25267	29887509
0.25333	29049936
0.25400	28234356
0.25467	27440291
0.25533	26667268
0.25600	25914819
0.25667	25182481
0.25733	24469799
0.25800	23776324
0.25867	23101610
0.25933	22445221
0.26000	21806724
0.26067	21185696
0.26133	20581719
0.26200	19994384
0.26267	19423287
0.26333	18868032
0.26400	18328230
0.26467	17803499
0.26533	17293465
0.26600	16797759
0.26667	16316022
0.26733	15847899
0.26800	15393045
0.26867	14951119
0.26933	14521788
0.27000	14104727
0.27067	13699618
0.27133	13306150
0.27200	12924019
0.27267	12552929
0.27333	12192590
0.27400	11842716
0.27467	11503030
0.27533	11173263
0.27600	10853151
0.27667	10542437
0.27733	10240871
0.27800	9948210
0.27867	9664219
0.27933	9388669
0.28000	9121337
0.28067	8862010
0.28133	8610478
0.28200	8366544
0.28267	8130013
0.28333	7900701
0.28400	7678433
0.28467	7463042
0.28533	7254370
0.28600	7052269
0.28667	6856602
0.28733	6667245
0.28800	6484090
0.28867	6307044
0.28933	6136025
0.29000	5970964
0.29067	5811796
0.29133	5658462
0.29200	5510897
0.29267	5369038
0.29333	5232814
0.29400	5102150
0.29467	4976957
0.29533	4857145
0.29600	4742614
0.29667	4633262
0.29733	4528973
0.29800	4429623
0.29867	4335078
0.29933	4245197
0.30000	4159835
0.30067	4078839
0.30133	4002056
0.30200	3929329
0.30267	3860508
0.30333	3795442
0.30400	3733984
0.30467	3675988
0.30533	3621308
0.30600	3569798
0.30667	3521313
0.30733	3475709
0.30800	3432841
0.30867	3392563
0.30933	3354734
0.31000	3319212
0.31067	3285864
0.31133	3254561
0.31200	3225183
0.31267	3197619
0.31333	3171764
0.31400	3147520
0.31467	3124791
0.31533	3103490
0.31600	3083536
0.31667	3064854
0.31733	3047368
0.31800	3031002
0.31867	3015677
0.31933	3001316
0.32000	2987839
0.32067	2975166
0.32133	2963215
0.32200	2951910
0.32267	2941177
0.32333	2930940
0.32400	2921124
0.32467	2911646
0.32533	2902426
0.32600	2893370
0.32667	2884376
0.32733	2875332
0.32800	2866126
0.32867	2856642
0.32933	2846766
0.33000	2836383
0.33067	2825383
0.33133	2813656
0.33200	2801103
0.33267	2787624
0.33333	2773135
0.33400	2757564
0.33467	2740853
0.33533	2722960
0.33600	2703855
0.33667	2683528
0.33733	2661979
0.33800	2639230
0.33867	2615309
0.33933	2590257
0.34000	2564124
0.34067	2536969
0.34133	2508854
0.34200	2479849
0.34267	2450023
0.34333	2419448
0.34400	2388195
0.34467	2356337
0.34533	2323942
0.34600	2291078
0.34667	2257813
0.34733	2224208
0.34800	2190325
0.34867	2156223
0.34933	2121957
0.35000	2087580
0.35067	2053141
0.35133	2018688
0.35200	1984264
0.35267	1949909
0.35333	1915663
0.35400	1881561
0.35467	1847635
0.35533	1813918
0.35600	1780436
0.35667	1747217
0.35733	1714284
0.35800	1681660
0.35867	1649364
0.35933	1617414
0.36000	1585828
0.36067	1554619
0.36133	1523803
0.36200	1493390
0.36267	1463391
0.36333	1433815
0.36400	1404670
0.36467	1375963
0.36533	1347701
0.36600	1319889
0.36667	1292531
0.36733	1265630
0.36800	1239189
0.36867	1213209
0.36933	1187692
0.37000	1162638
0.37067	1138045
0.37133	1113913
0.37200	1090240
0.37267	1067023
0.37333	1044261
0.37400	1021950
0.37467	1000085
0.37533	978665
0.37600	957683
0.37667	937137
0.37733	917021
0.37800	897331
0.37867	878062
0.37933	859207
0.38000	840762
0.38067	822719
0.38133	805074
0.38200	787820
0.38267	770952
0.38333	754465
0.38400	738353
0.38467	722613
0.38533	707239
0.38600	692226
0.38667	677571
0.38733	663266
0.38800	649309
0.38867	635696
0.38933	622421
0.39000	609483
0.39067	596878
0.39133	584606
0.39200	572665
0.39267	561056
0.39333	549779
0.39400	538832
0.39467	528212
0.39533	517915
0.39600	507933
0.39667	498258
0.39733	488883
0.39800	479799
0.39867	470999
0.39933	462474
0.40000	454214
0.40067	446211
0.40133	438455
0.40200	430938
0.40267	423651
0.40333	416586
0.40400	409736
0.40467	403092
0.40533	396647
0.40600	390394
0.40667	384324
0.40733	378433
0.40800	372714
0.40867	367160
0.40933	361766
0.41000	356525
0.41067	351433
0.41133	346484
0.41200	341674
0.41267	336997
0.41333	332448
0.41400	328024
0.41467	323720
0.41533	319533
0.41600	315457
0.41667	311490
0.41733	307626
0.41800	303863
0.41867	300197
0.41933	296624
0.42000	293141
0.42067	289745
0.42133	286432
0.42200	283200
0.42267	280046
0.42333	276967
0.42400	273960
0.42467	271023
0.42533	268154
0.42600	265349
0.42667	262607
0.42733	259925
0.42800	257301
0.42867	254734
0.42933	252220
0.43000	249758
0.43067	247347
0.43133	244984
0.43200	242668
0.43267	240398
0.43333	238170
0.43400	235986
0.43467	233841
0.43533	231737
0.43600	229670
0.43667	227641
0.43733	225647
0.43800	223687
0.43867	221761
0.43933	219868
0.44000	218005
0.44067	216173
0.44133	214371
0.44200	212596
0.44267	210850
0.44333	209130
0.44400	207435
0.44467	205766
0.44533	204122
0.44600	202500
0.44667	200901
0.44733	199324
0.44800	197769
0.44867	196233
0.44933	194718
0.45000	193222
0.45067	191745
0.45133	190286
0.45200	188845
0.45267	187420
0.45333	186013
0.45400	184621
0.45467	183245
0.45533	181883
0.45600	180537
0.45667	179205
0.45733	177887
0.45800	176583
0.45867	175293
0.45933	174016
0.46000	172752
0.46067	171502
0.46133	170264
0.46200	169040
0.46267	167829
0.46333	166631
0.46400	165447
0.46467	164275
0.46533	163115
0.46600	161969
0.46667	160835
0.46733	159714
0.46800	158606
0.46867	157509
0.46933	156425
0.47000	155353
0.47067	154292
0.47133	153243
0.47200	152205
0.47267	151178
0.47333	150162
0.47400	149156
0.47467	148161
0.47533	147175
0.47600	146200
0.47667	145234
0.47733	144277
0.47800	143329
0.47867	142390
0.47933	141460
0.48000	140538
0.48067	139625
0.48133	138719
0.48200	137822
0.48267	136932
0.48333	136050
0.48400	135176
0.48467	134309
0.48533	133449
0.48600	132596
0.48667	131751
0.48733	130912
0.48800	130080
0.48867	129255
0.48933	128436
0.49000	127624
0.49067	126818
0.49133	126018
0.49200	125225
0.49267	124438
0.49333	123657
0.49400	122882
0.49467	122112
0.49533	121349
0.49600	120591
0.49667	119839
0.49733	119092
0.49800	118352
0.49867	117616
0.49933	116886
0.50000	116162
0.50067	115443
0.50133	114729
0.50200	114021
0.50267	113317
0.50333	112619
0.50400	111926
0.50467	111238
0.50533	110556
0.50600	109878
0.50667	109205
0.50733	108538
0.50800	107876
0.50867	107218
0.50933	106566
0.51000	105918
0.51067	105276
0.51133	104638
0.51200	104006
0.51267	103378
0.51333	102755
0.51400	102136
0.51467	101523
0.51533	100914
0.51600	100309
0.51667	99709
0.51733	99114
0.51800	98522
0.51867	97936
0.51933	97353
0.52000	96775
0.52067	96201
0.52133	95631
0.52200	95065
0.52267	94504
0.52333	93947
0.52400	93393
0.52467	92844
0.52533	92299
0.52600	91758
0.52667	91221
0.52733	90689
0.52800	90160
0.52867	89635
0.52933	89114
0.53000	88597
0.53067	88084
0.53133	87574
0.53200	87069
0.53267	86567
0.53333	86069
0.53400	85575
0.53467	85085
0.53533	84598
0.53600	84116
0.53667	83636
0.53733	83161
0.53800	82689
0.53867	82221
0.53933	81756
0.54000	81295
0.54067	80837
0.54133	80384
0.54200	79933
0.54267	79486
0.54333	79043
0.54400	78603
0.54467	78167
0.54533	77734
0.54600	77305
0.54667	76879
0.54733	76456
0.54800	76037
0.54867	75622
0.54933	75209
0.55000	74800
0.55067	74394
0.55133	73991
0.55200	73592
0.55267	73195
0.55333	72802
0.55400	72412
0.55467	72025
0.55533	71641
0.55600	71260
0.55667	70883
0.55733	70508
0.55800	70137
0.55867	69768
0.55933	69403
0.56000	69040
0.56067	68681
0.56133	68325
0.56200	67972
0.56267	67622
0.56333	67276
0.56400	66933
0.56467	66593
0.56533	66257
0.56600	65925
0.56667	65596
0.56733	65271
0.56800	64949
0.56867	64631
0.56933	64318
0.57000	64007
0.57067	63701
0.57133	63399
0.57200	63100
0.57267	62805
0.57333	62514
0.57400	62226
0.57467	61942
0.57533	61661
0.57600	61383
0.57667	61108
0.57733	60836
0.57800	60567
0.57867	60300
0.57933	60035
0.58000	59773
0.58067	59513
0.58133	59255
0.58200	58998
0.58267	58744
0.58333	58491
0.58400	58240
0.58467	57990
0.58533	57741
0.58600	57493
0.58667	57247
0.58733	57002
0.58800	56758
0.58867	56515
0.58933	56274
0.59000	56033
0.59067	55794
0.59133	55555
0.59200	55318
0.59267	55081
0.59333	54846
0.59400	54612
0.59467	54378
0.59533	54146
0.59600	53915
0.59667	53685
0.59733	53456
0.59800	53228
0.59867	53001
0.59933	52775
0.60000	52550
0.60067	52327
0.60133	52104
0.60200	51882
0.60267	51662
0.60333	51442
0.60400	51224
0.60467	51006
0.60533	50790
0.60600	50575
0.60667	50361
0.60733	50148
0.60800	49936
0.60867	49725
0.60933	49516
0.61000	49308
0.61067	49100
0.61133	48894
0.61200	48689
0.61267	48484
0.61333	48281
0.61400	48079
0.61467	47878
0.61533	47678
0.61600	47479
0.61667	47281
0.61733	47084
0.61800	46888
0.61867	46693
0.61933	46500
0.62000	46307
0.62067	46116
0.62133	45926
0.62200	45737
0.62267	45549
0.62333	45363
0.62400	45179
0.62467	44995
0.62533	44814
0.62600	44633
0.62667	44455
0.62733	44278
0.62800	44102
0.62867	43929
0.62933	43757
0.63000	43586
0.63067	43418
0.63133	43251
0.63200	43085
0.63267	42922
0.63333	42759
0.63400	42599
0.63467	42439
0.63533	42281
0.63600	42125
0.63667	41970
0.63733	41815
0.63800	41662
0.63867	41511
0.63933	41360
0.64000	41210
0.64067	41062
0.64133	40914
0.64200	40767
0.64267	40621
0.64333	40476
0.64400	40332
0.64467	40188
0.64533	40046
0.64600	39904
0.64667	39763
0.64733	39624
0.64800	39485
0.64867	39347
0.64933	39210
0.65000	39075
0.65067	38941
0.65133	38807
0.65200	38675
0.65267	38545
0.65333	38415
0.65400	38287
0.65467	38161
0.65533	38036
0.65600	37912
0.65667	37790
0.65733	37669
0.65800	37550
0.65867	37432
0.65933	37316
0.66000	37201
0.66067	37088
0.66133	36976
0.66200	36865
0.66267	36755
0.66333	36646
0.66400	36539
0.66467	36432
0.66533	36325
0.66600	36220
0.66667	36115
0.66733	36010
0.66800	35906
0.66867	35802
0.66933	35699
0.67000	35596
0.67067	35493
0.67133	35391
0.67200	35288
0.67267	35186
0.67333	35084
0.67400	34983
0.67467	34881
0.67533	34780
0.67600	34679
0.67667	34579
0.67733	34478
0.67800	34378
0.67867	34279
0.67933	34179
0.68000	34081
0.68067	33982
0.68133	33884
0.68200	33787
0.68267	33691
0.68333	33595
0.68400	33501
0.68467	33408
0.68533	33317
0.68600	33228
0.68667	33142
0.68733	33058
0.68800	32979
0.68867	32904
0.68933	32834
0.69000	32771
0.69067	32716
0.69133	32669
0.69200	32634
0.69267	32611
0.69333	32601
0.69400	32607
0.69467	32629
0.69533	32670
0.69600	32731
0.69667	32813
0.69733	32919
0.69800	33049
0.69867	33204
0.69933	33385
0.70000	33592
0.70067	33825
0.70133	34083
0.70200	34366
0.70267	34671
0.70333	34997
0.70400	35343
0.70467	35704
0.70533	36080
0.70600	36467
0.70667	36862
0.70733	37263
0.70800	37666
0.70867	38069
0.70933	38468
0.71000	38861
0.71067	39245
0.71133	39617
0.71200	39976
0.71267	40317
0.71333	40641
0.71400	40944
0.71467	41227
0.71533	41488
0.71600	41726
0.71667	41941
0.71733	42133
0.71800	42301
0.71867	42446
0.71933	42568
0.72000	42667
0.72067	42744
0.72133	42799
0.72200	42833
0.72267	42847
0.72333	42841
0.72400	42817
0.72467	42776
0.72533	42717
0.72600	42643
0.72667	42553
0.72733	42450
0.72800	42333
0.72867	42204
0.72933	42063
0.73000	41911
0.73067	41750
0.73133	41578
0.73200	41398
0.73267	41210
0.73333	41015
0.73400	40813
0.73467	40605
0.73533	40391
0.73600	40172
0.73667	39949
0.73733	39721
0.73800	39490
0.73867	39255
0.73933	39018
0.74000	38778
0.74067	38536
0.74133	38292
0.74200	38047
0.74267	37801
0.74333	37554
0.74400	37307
0.74467	37059
0.74533	36812
0.74600	36565
0.74667	36318
0.74733	36072
0.74800	35827
0.74867	35582
0.74933	35340
0.75000	35098
0.75067	34858
0.75133	34620
0.75200	34383
0.75267	34149
0.75333	33916
0.75400	33686
0.75467	33458
0.75533	33233
0.75600	33009
0.75667	32789
0.75733	32571
0.75800	32356
0.75867	32143
0.75933	31933
0.76000	31727
0.76067	31523
0.76133	31321
0.76200	31123
0.76267	30929
0.76333	30737
0.76400	30548
0.76467	30362
0.76533	30180
0.76600	30001
0.76667	29825
0.76733	29652
0.76800	29482
0.76867	29316
0.76933	29152
0.77000	28992
0.77067	28835
0.77133	28681
0.77200	28530
0.77267	28382
0.77333	28237
0.77400	28095
0.77467	27955
0.77533	27819
0.77600	27685
0.77667	27553
0.77733	27424
0.77800	27298
0.77867	27174
0.77933	27052
0.78000	26933
0.78067	26815
0.78133	26700
0.78200	26587
0.78267	26476
0.78333	26366
0.78400	26259
0.78467	26153
0.78533	26049
0.78600	25946
0.78667	25845
0.78733	25745
0.78800	25646
0.78867	25549
0.78933	25453
0.79000	25358
0.79067	25265
0.79133	25172
0.79200	25080
0.79267	24990
0.79333	24900
0.79400	24812
0.79467	24724
0.79533	24637
0.79600	24551
0.79667	24466
0.79733	24381
0.79800	24298
0.79867	24215
0.79933	24133
0.80000	24052
0.80067	23972
0.80133	23892
0.80200	23813
0.80267	23735
0.80333	23658
0.80400	23581
0.80467	23505
0.80533	23430
0.80600	23356
0.80667	23282
0.80733	23209
0.80800	23136
0.80867	23064
0.80933	22993
0.81000	22922
0.81067	22852
0.81133	22783
0.81200	22714
0.81267	22646
0.81333	22579
0.81400	22512
0.81467	22446
0.81533	22380
0.81600	22315
0.81667	22251
0.81733	22188
0.81800	22125
0.81867	22062
0.81933	22001
0.82000	21940
0.82067	21879
0.82133	21819
0.82200	21760
0.82267	21702
0.82333	21644
0.82400	21586
0.82467	21530
0.82533	21473
0.82600	21418
0.82667	21363
0.82733	21308
0.82800	21254
0.82867	21201
0.82933	21148
0.83000	21096
0.83067	21044
0.83133	20993
0.83200	20942
0.83267	20892
0.83333	20842
0.83400	20793
0.83467	20744
0.83533	20696
0.83600	20648
0.83667	20601
0.83733	20554
0.83800	20508
0.83867	20462
0.83933	20416
0.84000	20371
0.84067	20327
0.84133	20283
0.84200	20239
0.84267	20195
0.84333	20152
0.84400	20110
0.84467	20068
0.84533	20026
0.84600	19985
0.84667	19944
0.84733	19903
0.84800	19863
0.84867	19823
0.84933	19783
0.85000	19744
0.85067	19705
0.85133	19667
0.85200	19628
0.85267	19590
0.85333	19553
0.85400	19515
0.85467	19478
0.85533	19441
0.85600	19405
0.85667	19369
0.85733	19333
0.85800	19297
0.85867	19262
0.85933	19227
0.86000	19192
0.86067	19158
0.86133	19123
0.86200	19089
0.86267	19055
0.86333	19022
0.86400	18988
0.86467	18955
0.86533	18922
0.86600	18889
0.86667	18857
0.86733	18824
0.86800	18792
0.86867	18760
0.86933	18728
0.87000	18697
0.87067	18665
0.87133	18634
0.87200	18603
0.87267	18572
0.87333	18542
0.87400	18511
0.87467	18481
0.87533	18451
0.87600	18421
0.87667	18391
0.87733	18361
0.87800	18332
0.87867	18302
0.87933	18273
0.88000	18244
0.88067	18215
0.88133	18186
0.88200	18157
0.88267	18129
0.88333	18101
0.88400	18073
0.88467	18045
0.88533	18017
0.88600	17990
0.88667	17963
0.88733	17936
0.88800	17909
0.88867	17882
0.88933	17855
0.89000	17829
0.89067	17803
0.89133	17776
0.89200	17751
0.89267	17725
0.89333	17699
0.89400	17674
0.89467	17649
0.89533	17624
0.89600	17599
0.89667	17574
0.89733	17549
0.89800	17525
0.89867	17500
0.89933	17476
0.90000	17452
0.90067	17428
0.90133	17404
0.90200	17381
0.90267	17357
0.90333	17333
0.90400	17310
0.90467	17286
0.90533	17263
0.90600	17240
0.90667	17217
0.90733	17194
0.90800	17171
0.90867	17148
0.90933	17126
0.91000	17103
0.91067	17081
0.91133	17058
0.91200	17036
0.91267	17014
0.91333	16991
0.91400	16969
0.91467	16947
0.91533	16926
0.91600	16904
0.91667	16882
0.91733	16861
0.91800	16839
0.91867	16818
0.91933	16796
0.92000	16775
0.92067	16754
0.92133	16733
0.92200	16712
0.92267	16691
0.92333	16671
0.92400	16650
0.92467	16630
0.92533	16610
0.92600	16590
0.92667	16570
0.92733	16550
0.92800	16530
0.92867	16511
0.92933	16492
0.93000	16473
0.93067	16454
0.93133	16435
0.93200	16417
0.93267	16399
0.93333	16381
0.93400	16363
0.93467	16345
0.93533	16327
0.93600	16310
0.93667	16293
0.93733	16275
0.93800	16258
0.93867	16242
0.93933	16225
0.94000	16208
0.94067	16192
0.94133	16175
0.94200	16159
0.94267	16142
0.94333	16126
0.94400	16110
0.94467	16093
0.94533	16077
0.94600	16060
0.94667	16044
0.94733	16027
0.94800	16011
0.94867	15994
0.94933	15977
0.95000	15961
0.95067	15944
0.95133	15927
0.95200	15910
0.95267	15894
0.95333	15877
0.95400	15860
0.95467	15843
0.95533	15826
0.95600	15810
0.95667	15793
0.95733	15776
0.95800	15760
0.95867	15743
0.95933	15727
0.96000	15710
0.96067	15694
0.96133	15678
0.96200	15662
0.96267	15646
0.96333	15631
0.96400	15615
0.96467	15600
0.96533	15584
0.96600	15569
0.96667	15554
0.96733	15538
0.96800	15523
0.96867	15508
0.96933	15493
0.97000	15478
0.97067	15463
0.97133	15449
0.97200	15433
0.97267	15418
0.97333	15403
0.97400	15388
0.97467	15372
0.97533	15357
0.97600	15341
0.97667	15325
0.97733	15309
0.97800	15293
0.97867	15276
0.97933	15260
0.98000	15243
0.98067	15226
0.98133	15209
0.98200	15192
0.98267	15175
0.98333	15157
0.98400	15139
0.98467	15122
0.98533	15104
0.98600	15085
0.98667	15067
0.98733	15049
0.98800	15030
0.98867	15012
0.98933	14993
0.99000	14974
0.99067	14955
0.99133	14937
0.99200	14918
0.99267	14899
0.99333	14880
0.99400	14861
0.99467	14842
0.99533	14823
0.99600	14804
0.99667	14785
0.99733	14766
0.99800	14747
0.99867	14728
0.99933	14709
1.00000	14690
1.00067	14671
1.00133	14652
1.00200	14633
1.00267	14615
1.00333	14596
1.00400	14578
1.00467	14559
1.00533	14541
1.00600	14523
1.00667	14505
1.00733	14487
1.00800	14469
1.00867	14451
1.00933	14433
1.01000	14416
1.01067	14398
1.01133	14381
1.01200	14364
1.01267	14348
1.01333	14331
1.01400	14315
1.01467	14300
1.01533	14284
1.01600	14269
1.01667	14254
1.01733	14240
1.01800	14226
1.01867	14212
1.01933	14199
1.02000	14187
1.02067	14174
1.02133	14163
1.02200	14152
1.02267	14141
1.02333	14131
1.02400	14121
1.02467	14112
1.02533	14103
1.02600	14095
1.02667	14087
1.02733	14080
1.02800	14072
1.02867	14066
1.02933	14059
1.03000	14052
1.03067	14046
1.03133	14040
1.03200	14034
1.03267	14028
1.03333	14022
1.03400	14016
1.03467	14009
1.03533	14003
1.03600	13997
1.03667	13990
1.03733	13983
1.03800	13976
1.03867	13968
1.03933	13960
1.04000	13952
1.04067	13943
1.04133	13935
1.04200	13925
1.04267	13916
1.04333	13906
1.04400	13895
1.04467	13885
1.04533	13874
1.04600	13863
1.04667	13851
1.04733	13839
1.04800	13827
1.04867	13814
1.04933	13802
1.05000	13789
1.05067	13775
1.05133	13762
1.05200	13748
1.05267	13734
1.05333	13720
1.05400	13705
1.05467	13691
1.05533	13676
1.05600	13661
1.05667	13646
1.05733	13631
1.05800	13616
1.05867	13601
1.05933	13585
1.06000	13570
1.06067	13554
1.06133	13539
1.06200	13523
1.06267	13508
1.06333	13492
1.06400	13477
1.06467	13461
1.06533	13446
1.06600	13430
1.06667	13415
1.06733	13399
1.06800	13384
1.06867	13368
1.06933	13353
1.07000	13338
1.07067	13322
1.07133	13307
1.07200	13292
1.07267	13277
1.07333	13262
1.07400	13247
1.07467	13232
1.07533	13217
1.07600	13202
1.07667	13187
1.07733	13172
1.07800	13158
1.07867	13144
1.07933	13129
1.08000	13115
1.08067	13101
1.08133	13086
1.08200	13072
1.08267	13058
1.08333	13045
1.08400	13031
1.08467	13017
1.08533	13003
1.08600	12990
1.08667	12977
1.08733	12963
1.08800	12950
1.08867	12937
1.08933	12924
1.09000	12911
1.09067	12898
1.09133	12886
1.09200	12873
1.09267	12860
1.09333	12848
1.09400	12835
1.09467	12823
1.09533	12811
1.09600	12798
1.09667	12786
1.09733	12774
1.09800	12762
1.09867	12751
1.09933	12739
1.10000	12727
1.10067	12715
1.10133	12704
1.10200	12692
1.10267	12681
1.10333	12670
1.10400	12658
1.10467	12647
1.10533	12636
1.10600	12625
1.10667	12614
1.10733	12603
1.10800	12592
1.10867	12582
1.10933	12571
1.11000	12561
1.11067	12550
1.11133	12540
1.11200	12530
1.11267	12520
1.11333	12510
1.11400	12500
1.11467	12490
1.11533	12480
1.11600	12470
1.11667	12460
1.11733	12451
1.11800	12441
1.11867	12432
1.11933	12422
1.12000	12413
1.12067	12404
1.12133	12394
1.12200	12385
1.12267	12376
1.12333	12367
1.12400	12358
1.12467	12349
1.12533	12339
1.12600	12330
1.12667	12321
1.12733	12312
1.12800	12304
1.12867	12295
1.12933	12286
1.13000	12277
1.13067	12268
1.13133	12260
1.13200	12251
1.13267	12243
1.13333	12234
1.13400	12226
1.13467	12217
1.13533	12209
1.13600	12200
1.13667	12192
1.13733	12183
1.13800	12175
1.13867	12166
1.13933	12158
1.14000	12149
1.14067	12140
1.14133	12132
1.14200	12123
1.14267	12115
1.14333	12106
1.14400	12098
1.14467	12089
1.14533	12081
1.14600	12072
1.14667	12063
1.14733	12055
1.14800	12046
1.14867	12037
1.14933	12028
1.15000	12020
1.15067	12011
1.15133	12002
1.15200	11993
1.15267	11985
1.15333	11976
1.15400	11967
1.15467	11959
1.15533	11950
1.15600	11941
1.15667	11932
1.15733	11924
1.15800	11915
1.15867	11906
1.15933	11898
1.16000	11889
1.16067	11880
1.16133	11872
1.16200	11863
1.16267	11855
1.16333	11846
1.16400	11838
1.16467	11829
1.16533	11821
1.16600	11812
1.16667	11804
1.16733	11796
1.16800	11787
1.16867	11779
1.16933	11771
1.17000	11762
1.17067	11754
1.17133	11746
1.17200	11738
1.17267	11730
1.17333	11722
1.17400	11714
1.17467	11706
1.17533	11698
1.17600	11691
1.17667	11683
1.17733	11675
1.17800	11668
1.17867	11660
1.17933	11653
1.18000	11646
1.18067	11639
1.18133	11631
1.18200	11624
1.18267	11617
1.18333	11610
1.18400	11603
1.18467	11597
1.18533	11590
1.18600	11583
1.18667	11577
1.18733	11570
1.18800	11564
1.18867	11557
1.18933	11551
1.19000	11545
1.19067	11539
1.19133	11533
1.19200	11528
1.19267	11522
1.19333	11517
1.19400	11512
1.19467	11507
1.19533	11502
1.19600	11498
1.19667	11493
1.19733	11489
1.19800	11485
1.19867	11481
1.19933	11477
1.20000	11474
1.20067	11470
1.20133	11467
1.20200	11464
1.20267	11461
1.20333	11458
1.20400	11455
1.20467	11453
1.20533	11450
1.20600	11448
1.20667	11446
1.20733	11444
1.20800	11442
1.20867	11440
1.20933	11439
1.21000	11437
1.21067	11436
1.21133	11435
1.21200	11434
1.21267	11432
1.21333	11432
1.21400	11431
1.21467	11430
1.21533	11429
1.21600	11429
1.21667	11428
1.21733	11428
1.21800	11428
1.21867	11428
1.21933	11428
1.22000	11427
1.22067	11427
1.22133	11427
1.22200	11427
1.22267	11428
1.22333	11428
1.22400	11428
1.22467	11428
1.22533	11428
1.22600	11429
1.22667	11429
1.22733	11430
1.22800	11430
1.22867	11430
1.22933	11431
1.23000	11432
1.23067	11432
1.23133	11433
1.23200	11434
1.23267	11434
1.23333	11435
1.23400	11436
1.23467	11437
1.23533	11438
1.23600	11439
1.23667	11440
1.23733	11441
1.23800	11443
1.23867	11444
1.23933	11446
1.24000	11448
1.24067	11450
1.24133	11452
1.24200	11455
1.24267	11457
1.24333	11460
1.24400	11463
1.24467	11467
1.24533	11471
1.24600	11475
1.24667	11479
1.24733	11484
1.24800	11490
1.24867	11496
1.24933	11502
1.25000	11509
1.25067	11516
1.25133	11524
1.25200	11532
1.25267	11541
1.25333	11551
1.25400	11561
1.25467	11571
1.25533	11582
1.25600	11593
1.25667	11605
1.25733	11617
1.25800	11629
1.25867	11642
1.25933	11654
1.26000	11667
1.26067	11679
1.26133	11692
1.26200	11704
1.26267	11716
1.26333	11728
1.26400	11740
1.26467	11751
1.26533	11762
1.26600	11773
1.26667	11783
1.26733	11793
1.26800	11802
1.26867	11810
1.26933	11818
1.27000	11826
1.27067	11832
1.27133	11838
1.27200	11844
1.27267	11849
1.27333	11853
1.27400	11856
1.27467	11859
1.27533	11861
1.27600	11862
1.27667	11863
1.27733	11863
1.27800	11862
1.27867	11861
1.27933	11859
1.28000	11857
1.28067	11854
1.28133	11850
1.28200	11846
1.28267	11841
1.28333	11836
1.28400	11830
1.28467	11824
1.28533	11818
1.28600	11811
1.28667	11803
1.28733	11795
1.28800	11787
1.28867	11779
1.28933	11770
1.29000	11761
1.29067	11751
1.29133	11742
1.29200	11732
1.29267	11721
1.29333	11711
1.29400	11701
1.29467	11690
1.29533	11679
1.29600	11668
1.29667	11657
1.29733	11645
1.29800	11634
1.29867	11622
1.29933	11610
1.30000	11599
1.30067	11587
1.30133	11575
1.30200	11562
1.30267	11550
1.30333	11538
1.30400	11526
1.30467	11513
1.30533	11501
1.30600	11489
1.30667	11476
1.30733	11464
1.30800	11451
1.30867	11439
1.30933	11426
1.31000	11413
1.31067	11401
1.31133	11388
1.31200	11375
1.31267	11362
1.31333	11349
1.31400	11337
1.31467	11324
1.31533	11311
1.31600	11298
1.31667	11285
1.31733	11272
1.31800	11259
1.31867	11247
1.31933	11234
1.32000	11221
1.32067	11208
1.32133	11195
1.32200	11182
1.32267	11169
1.32333	11157
1.32400	11144
1.32467	11131
1.32533	11118
1.32600	11106
1.32667	11093
1.32733	11081
1.32800	11068
1.32867	11056
1.32933	11043
1.33000	11031
1.33067	11019
1.33133	11006
1.33200	10994
1.33267	10982
1.33333	10970
1.33400	10958
1.33467	10946
1.33533	10934
1.33600	10922
1.33667	10910
1.33733	10898
1.33800	10886
1.33867	10874
1.33933	10863
1.34000	10851
1.34067	10839
1.34133	10827
1.34200	10816
1.34267	10804
1.34333	10793
1.34400	10782
1.34467	10771
1.34533	10759
1.34600	10748
1.34667	10738
1.34733	10727
1.34800	10716
1.34867	10705
1.34933	10695
1.35000	10684
1.35067	10674
1.35133	10664
1.35200	10654
1.35267	10644
1.35333	10634
1.35400	10624
1.35467	10614
1.35533	10605
1.35600	10595
1.35667	10586
1.35733	10576
1.35800	10567
1.35867	10558
1.35933	10549
1.36000	10540
1.36067	10531
1.36133	10522
1.36200	10514
1.36267	10505
1.36333	10496
1.36400	10488
1.36467	10480
1.36533	10472
1.36600	10463
1.36667	10455
1.36733	10447
1.36800	10440
1.36867	10432
1.36933	10424
1.37000	10416
1.37067	10409
1.37133	10401
1.37200	10394
1.37267	10387
1.37333	10380
1.37400	10372
1.37467	10366
1.37533	10359
1.37600	10352
1.37667	10345
1.37733	10338
1.37800	10332
1.37867	10325
1.37933	10319
1.38000	10312
1.38067	10306
1.38133	10300
1.38200	10294
1.38267	10288
1.38333	10281
1.38400	10275
1.38467	10269
1.38533	10263
1.38600	10258
1.38667	10252
1.38733	10246
1.38800	10240
1.38867	10234
1.38933	10229
1.39000	10223
1.39067	10217
1.39133	10212
1.39200	10206
1.39267	10200
1.39333	10195
1.39400	10189
1.39467	10184
1.39533	10178
1.39600	10173
1.39667	10167
1.39733	10162
1.39800	10156
1.39867	10151
1.39933	10145
1.40000	10140
1.40067	10134
1.40133	10128
1.40200	10123
1.40267	10117
1.40333	10111
1.40400	10106
1.40467	10100
1.40533	10095
1.40600	10089
1.40667	10083
1.40733	10078
1.40800	10072
1.40867	10066
1.40933	10061
1.41000	10055
1.41067	10049
1.41133	10044
1.41200	10038
1.41267	10032
1.41333	10027
1.41400	10021
1.41467	10016
1.41533	10010
1.41600	10005
1.41667	10000
1.41733	9994
1.41800	9989
1.41867	9984
1.41933	9978
1.42000	9973
1.42067	9968
1.42133	9963
1.42200	9958
1.42267	9953
1.42333	9948
1.42400	9943
1.42467	9938
1.42533	9933
1.42600	9929
1.42667	9924
1.42733	9919
1.42800	9915
1.42867	9910
1.42933	9906
1.43000	9901
1.43067	9897
1.43133	9893
1.43200	9888
1.43267	9884
1.43333	9880
1.43400	9876
1.43467	9872
1.43533	9868
1.43600	9864
1.43667	9861
1.43733	9857
1.43800	9854
1.43867	9850
1.43933	9847
1.44000	9844
1.44067	9841
1.44133	9838
1.44200	9835
1.44267	9833
1.44333	9830
1.44400	9828
1.44467	9825
1.44533	9823
1.44600	9821
1.44667	9819
1.44733	9818
1.44800	9816
1.44867	9814
1.44933	9813
1.45000	9812
1.45067	9810
1.45133	9809
1.45200	9807
1.45267	9806
1.45333	9805
1.45400	9804
1.45467	9802
1.45533	9801
1.45600	9799
1.45667	9798
1.45733	9796
1.45800	9795
1.45867	9793
1.45933	9791
1.46000	9789
1.46067	9787
1.46133	9785
1.46200	9783
1.46267	9780
1.46333	9778
1.46400	9775
1.46467	9773
1.46533	9770
1.46600	9767
1.46667	9764
1.46733	9761
1.46800	9757
1.46867	9754
1.46933	9750
1.47000	9747
1.47067	9743
1.47133	9740
1.47200	9736
1.47267	9732
1.47333	9728
1.47400	9724
1.47467	9720
1.47533	9715
1.47600	9711
1.47667	9707
1.47733	9702
1.47800	9698
1.47867	9694
1.47933	9689
1.48000	9684
1.48067	9680
1.48133	9675
1.48200	9671
1.48267	9666
1.48333	9661
1.48400	9657
1.48467	9652
1.48533	9647
1.48600	9643
1.48667	9638
1.48733	9634
1.48800	9629
1.48867	9625
1.48933	9620
1.49000	9616
1.49067	9611
1.49133	9607
1.49200	9602
1.49267	9598
1.49333	9594
1.49400	9589
1.49467	9585
1.49533	9581
1.49600	9577
1.49667	9573
1.49733	9569
1.49800	9564
1.49867	9560
1.49933	9556
1.50000	9552
1.50067	9548
1.50133	9544
1.50200	9540
1.50267	9535
1.50333	9531
1.50400	9527
1.50467	9523
1.50533	9519
1.50600	9515
1.50667	9510
1.50733	9506
1.50800	9502
1.50867	9498
1.50933	9494
1.51000	9490
1.51067	9486
1.51133	9482
1.51200	9478
1.51267	9474
1.51333	9470
1.51400	9466
1.51467	9462
1.51533	9458
1.51600	9454
1.51667	9450
1.51733	9446
1.51800	9442
1.51867	9438
1.51933	9434
1.52000	9430
1.52067	9426
1.52133	9422
1.52200	9418
1.52267	9414
1.52333	9410
1.52400	9406
1.52467	9402
1.52533	9398
1.52600	9394
1.52667	9390
1.52733	9386
1.52800	9382
1.52867	9378
1.52933	9374
1.53000	9370
1.53067	9366
1.53133	9362
1.53200	9358
1.53267	9354
1.53333	9350
1.53400	9346
1.53467	9342
1.53533	9338
1.53600	9334
1.53667	9330
1.53733	9326
1.53800	9322
1.53867	9318
1.53933	9314
1.54000	9310
1.54067	9306
1.54133	9302
1.54200	9298
1.54267	9294
1.54333	9290
1.54400	9286
1.54467	9282
1.54533	9278
1.54600	9274
1.54667	9270
1.54733	9266
1.54800	9262
1.54867	9258
1.54933	9254
1.55000	9250
1.55067	9246
1.55133	9242
1.55200	9239
1.55267	9235
1.55333	9231
1.55400	9227
1.55467	9223
1.55533	9220
1.55600	9216
1.55667	9213
1.55733	9209
1.55800	9205
1.55867	9202
1.55933	9198
1.56000	9195
1.56067	9191
1.56133	9188
1.56200	9184
1.56267	9181
1.56333	9177
1.56400	9174
1.56467	9170
1.56533	9167
1.56600	9164
1.56667	9160
1.56733	9157
1.56800	9154
1.56867	9151
1.56933	9147
1.57000	9144
1.57067	9141
1.57133	9138
1.57200	9134
1.57267	9131
1.57333	9128
1.57400	9125
1.57467	9121
1.57533	9118
1.57600	9115
1.57667	9112
1.57733	9109
1.57800	9106
1.57867	9103
1.57933	9100
1.58000	9097
1.58067	9093
1.58133	9090
1.58200	9088
1.58267	9085
1.58333	9082
1.58400	9079
1.58467	9076
1.58533	9073
1.58600	9070
1.58667	9067
1.58733	9065
1.58800	9062
1.58867	9059
1.58933	9057
1.59000	9054
1.59067	9051
1.59133	9049
1.59200	9046
1.59267	9043
1.59333	9041
1.59400	9038
1.59467	9036
1.59533	9033
1.59600	9031
1.59667	9028
1.59733	9026
1.59800	9023
1.59867	9021
1.59933	9018
1.60000	9016
1.60067	9014
1.60133	9011
1.60200	9009
1.60267	9007
1.60333	9005
1.60400	9002
1.60467	9000
1.60533	8998
1.60600	8996
1.60667	8993
1.60733	8991
1.60800	8989
1.60867	8987
1.60933	8985
1.61000	8982
1.61067	8980
1.61133	8978
1.61200	8976
1.61267	8974
1.61333	8972
1.61400	8970
1.61467	8967
1.61533	8965
1.61600	8963
1.61667	8961
1.61733	8959
1.61800	8957
1.61867	8955
1.61933	8953
1.62000	8951
1.62067	8949
1.62133	8947
1.62200	8945
1.62267	8943
1.62333	8941
1.62400	8939
1.62467	8937
1.62533	8936
1.62600	8934
1.62667	8932
1.62733	8930
1.62800	8929
1.62867	8927
1.62933	8926
1.63000	8924
1.63067	8923
1.63133	8921
1.63200	8919
1.63267	8918
1.63333	8916
1.63400	8915
1.63467	8913
1.63533	8912
1.63600	8910
1.63667	8909
1.63733	8907
1.63800	8906
1.63867	8904
1.63933	8903
1.64000	8901
1.64067	8900
1.64133	8898
1.64200	8897
1.64267	8895
1.64333	8894
1.64400	8892
1.64467	8891
1.64533	8889
1.64600	8888
1.64667	8886
1.64733	8885
1.64800	8883
1.64867	8882
1.64933	8880
1.65000	8879
1.65067	8877
1.65133	8876
1.65200	8874
1.65267	8873
1.65333	8871
1.65400	8870
1.65467	8868
1.65533	8867
1.65600	8865
1.65667	8864
1.65733	8863
1.65800	8861
1.65867	8860
1.65933	8859
1.66000	8857
1.66067	8856
1.66133	8855
1.66200	8854
1.66267	8852
1.66333	8851
1.66400	8850
1.66467	8849
1.66533	8847
1.66600	8846
1.66667	8845
1.66733	8844
1.66800	8842
1.66867	8841
1.66933	8839
1.67000	8838
1.67067	8837
1.67133	8835
1.67200	8834
1.67267	8832
1.67333	8831
1.67400	8829
1.67467	8827
1.67533	8826
1.67600	8824
1.67667	8822
1.67733	8821
1.67800	8819
1.67867	8817
1.67933	8815
1.68000	8813
1.68067	8811
1.68133	8809
1.68200	8807
1.68267	8805
1.68333	8803
1.68400	8801
1.68467	8798
1.68533	8796
1.68600	8794
1.68667	8792
1.68733	8789
1.68800	8787
1.68867	8784
1.68933	8782
1.69000	8780
1.69067	8777
1.69133	8775
1.69200	8772
1.69267	8770
1.69333	8767
1.69400	8765
1.69467	8762
1.69533	8760
1.69600	8757
1.69667	8755
1.69733	8752
1.69800	8750
1.69867	8747
1.69933	8745
1.70000	8742
1.70067	8740
1.70133	8737
1.70200	8735
1.70267	8732
1.70333	8730
1.70400	8727
1.70467	8725
1.70533	8722
1.70600	8720
1.70667	8717
1.70733	8715
1.70800	8713
1.70867	8710
1.70933	8708
1.71000	8706
1.71067	8703
1.71133	8701
1.71200	8699
1.71267	8697
1.71333	8695
1.71400	8694
1.71467	8692
1.71533	8691
1.71600	8690
1.71667	8690
1.71733	8690
1.71800	8691
1.71867	8693
1.71933	8696
1.72000	8700
1.72067	8706
1.72133	8714
1.72200	8725
1.72267	8738
1.72333	8755
1.72400	8777
1.72467	8804
1.72533	8838
1.72600	8879
1.72667	8930
1.72733	8991
1.72800	9066
1.72867	9156
1.72933	9265
1.73000	9394
1.73067	9549
1.73133	9733
1.73200	9950
1.73267	10206
1.73333	10507
1.73400	10859
1.73467	11270
1.73533	11747
1.73600	12300
1.73667	12937
1.73733	13669
1.73800	14506
1.73867	15460
1.73933	16545
1.74000	17776
1.74067	19168
1.74133	20736
1.74200	22495
1.74267	24464
1.74333	26660
1.74400	29104
1.74467	31816
1.74533	34818
1.74600	38131
1.74667	41776
1.74733	45775
1.74800	50147
1.74867	54913
1.74933	60093
1.75000	65708
1.75067	71778
1.75133	78324
1.75200	85366
1.75267	92924
1.75333	101020
1.75400	109674
1.75467	118904
1.75533	128730
1.75600	139168
1.75667	150235
1.75733	161941
1.75800	174300
1.75867	187322
1.75933	201021
1.76000	215407
1.76067	230487
1.76133	246266
1.76200	262746
1.76267	279928
1.76333	297811
1.76400	316392
1.76467	335662
1.76533	355602
1.76600	376194
1.76667	397421
1.76733	419260
1.76800	441682
1.76867	464652
1.76933	488132
1.77000	512078
1.77067	536437
1.77133	561150
1.77200	586149
1.77267	611359
1.77333	636693
1.77400	662055
1.77467	687340
1.77533	712438
1.77600	737230
1.77667	761598
1.77733	785419
1.77800	808574
1.77867	830945
1.77933	852419
1.78000	872888
1.78067	892252
1.78133	910424
1.78200	927324
1.78267	942888
1.78333	957065
1.78400	969818
1.78467	981119
1.78533	990955
1.78600	999325
1.78667	1006239
1.78733	1011718
1.78800	1015794
1.78867	1018506
1.78933	1019900
1.79000	1020030
1.79067	1018951
1.79133	1016724
1.79200	1013410
1.79267	1009071
1.79333	1003771
1.79400	997570
1.79467	990531
1.79533	982714
1.79600	974178
1.79667	964978
1.79733	955170
1.79800	944806
1.79867	933937
1.79933	922612
1.80000	910875
1.80067	898770
1.80133	886338
1.80200	873618
1.80267	860648
1.80333	847461
1.80400	834090
1.80467	820566
1.80533	806918
1.80600	793172
1.80667	779353
1.80733	765486
1.80800	751592
1.80867	737692
1.80933	723804
1.81000	709947
1.81067	696137
1.81133	682389
1.81200	668718
1.81267	655135
1.81333	641653
1.81400	628283
1.81467	615035
1.81533	601919
1.81600	588941
1.81667	576111
1.81733	563434
1.81800	550917
1.81867	538565
1.81933	526383
1.82000	514376
1.82067	502546
1.82133	490899
1.82200	479435
1.82267	468157
1.82333	457068
1.82400	446168
1.82467	435460
1.82533	424943
1.82600	414618
1.82667	404486
1.82733	394545
1.82800	384797
1.82867	375240
1.82933	365874
1.83000	356697
1.83067	347709
1.83133	338908
1.83200	330293
1.83267	321862
1.83333	313613
1.83400	305544
1.83467	297653
1.83533	289939
1.83600	282399
1.83667	275030
1.83733	267831
1.83800	260799
1.83867	253931
1.83933	247226
1.84000	240680
1.84067	234291
1.84133	228056
1.84200	221973
1.84267	216040
1.84333	210252
1.84400	204609
1.84467	199106
1.84533	193742
1.84600	188514
1.84667	183419
1.84733	178455
1.84800	173618
1.84867	168907
1.84933	164319
1.85000	159850
1.85067	155500
1.85133	151264
1.85200	147141
1.85267	143128
1.85333	139223
1.85400	135422
1.85467	131725
1.85533	128128
1.85600	124629
1.85667	121226
1.85733	117916
1.85800	114698
1.85867	111568
1.85933	108526
1.86000	105569
1.86067	102694
1.86133	99900
1.86200	97184
1.86267	94546
1.86333	91982
1.86400	89490
1.86467	87070
1.86533	84719
1.86600	82435
1.86667	80216
1.86733	78062
1.86800	75969
1.86867	73937
1.86933	71964
1.87000	70048
1.87067	68187
1.87133	66381
1.87200	64627
1.87267	62925
1.87333	61272
1.87400	59668
1.87467	58110
1.87533	56599
1.87600	55132
1.87667	53708
1.87733	52327
1.87800	50986
1.87867	49685
1.87933	48423
1.88000	47198
1.88067	46010
1.88133	44857
1.88200	43738
1.88267	42653
1.88333	41601
1.88400	40580
1.88467	39590
1.88533	38629
1.88600	37698
1.88667	36795
1.88733	35919
1.88800	35070
1.88867	34246
1.88933	33448
1.89000	32674
1.89067	31923
1.89133	31196
1.89200	30491
1.89267	29807
1.89333	29145
1.89400	28502
1.89467	27880
1.89533	27277
1.89600	26692
1.89667	26125
1.89733	25576
1.89800	25044
1.89867	24529
1.89933	24029
1.90000	23545
1.90067	23076
1.90133	22622
1.90200	22182
1.90267	21755
1.90333	21342
1.90400	20942
1.90467	20554
1.90533	20178
1.90600	19814
1.90667	19461
1.90733	19120
1.90800	18789
1.90867	18468
1.90933	18158
1.91000	17857
1.91067	17565
1.91133	17283
1.91200	17010
1.91267	16745
1.91333	16488
1.91400	16239
1.91467	15998
1.91533	15765
1.91600	15539
1.91667	15320
1.91733	15108
1.91800	14903
1.91867	14704
1.91933	14511
1.92000	14324
1.92067	14143
1.92133	13968
1.92200	13798
1.92267	13634
1.92333	13474
1.92400	13320
1.92467	13170
1.92533	13025
1.92600	12885
1.92667	12748
1.92733	12616
1.92800	12489
1.92867	12365
1.92933	12245
1.93000	12129
1.93067	12016
1.93133	11907
1.93200	11801
1.93267	11699
1.93333	11600
1.93400	11503
1.93467	11410
1.93533	11320
1.93600	11232
1.93667	11147
1.93733	11064
1.93800	10984
1.93867	10907
1.93933	10831
1.94000	10758
1.94067	10687
1.94133	10619
1.94200	10552
1.94267	10487
1.94333	10424
1.94400	10363
1.94467	10303
1.94533	10246
1.94600	10190
1.94667	10136
1.94733	10083
1.94800	10032
1.94867	9982
1.94933	9934
1.95000	9887
1.95067	9841
1.95133	9797
1.95200	9754
1.95267	9712
1.95333	9672
1.95400	9632
1.95467	9594
1.95533	9556
1.95600	9520
1.95667	9484
1.95733	9450
1.95800	9417
1.95867	9384
1.95933	9352
1.96000	9322
1.96067	9292
1.96133	9262
1.96200	9234
1.96267	9206
1.96333	9179
1.96400	9153
1.96467	9127
1.96533	9102
1.96600	9078
1.96667	9054
1.96733	9031
1.96800	9009
1.96867	8987
1.96933	8965
1.97000	8944
1.97067	8924
1.97133	8904
1.97200	8884
1.97267	8865
1.97333	8847
1.97400	8828
1.97467	8810
1.97533	8793
1.97600	8776
1.97667	8759
1.97733	8743
1.97800	8727
1.97867	8712
1.97933	8697
1.98000	8682
1.98067	8667
1.98133	8653
1.98200	8639
1.98267	8625
1.98333	8612
1.98400	8599
1.98467	8587
1.98533	8574
1.98600	8562
1.98667	8550
1.98733	8539
1.98800	8528
1.98867	8517
1.98933	8506
1.99000	8496
1.99067	8485
1.99133	8475
1.99200	8465
1.99267	8456
1.99333	8446
1.99400	8437
1.99467	8428
1.99533	8419
1.99600	8410
1.99667	8402
1.99733	8393
1.99800	8385
1.99867	8377
1.99933	8369
2.00000	8361
2.00067	8354
2.00133	8346
2.00200	8338
2.00267	8331
2.00333	8324
2.00400	8316
2.00467	8309
2.00533	8302
2.00600	8295
2.00667	8288
2.00733	8281
2.00800	8274
2.00867	8268
2.00933	8261
2.01000	8254
2.01067	8248
2.01133	8241
2.01200	8235
2.01267	8228
2.01333	8222
2.01400	8216
2.01467	8209
2.01533	8203
2.01600	8197
2.01667	8191
2.01733	8185
2.01800	8179
2.01867	8173
2.01933	8167
2.02000	8161
2.02067	8156
2.02133	8150
2.02200	8145
2.02267	8139
2.02333	8134
2.02400	8128
2.02467	8123
2.02533	8118
2.02600	8113
2.02667	8107
2.02733	8102
2.02800	8097
2.02867	8092
2.02933	8087
2.03000	8082
2.03067	8077
2.03133	8072
2.03200	8068
2.03267	8063
2.03333	8058
2.03400	8053
2.03467	8048
2.03533	8044
2.03600	8039
2.03667	8034
2.03733	8030
2.03800	8025
2.03867	8021
2.03933	8016
2.04000	8012
2.04067	8008
2.04133	8003
2.04200	7999
2.04267	7995
2.04333	7990
2.04400	7986
2.04467	7982
2.04533	7978
2.04600	7974
2.04667	7970
2.04733	7966
2.04800	7962
2.04867	7958
2.04933	7954
2.05000	7950
2.05067	7947
2.05133	7943
2.05200	7939
2.05267	7935
2.05333	7932
2.05400	7928
2.05467	7924
2.05533	7920
2.05600	7917
2.05667	7913
2.05733	7909
2.05800	7905
2.05867	7902
2.05933	7898
2.06000	7894
2.06067	7891
2.06133	7887
2.06200	7884
2.06267	7880
2.06333	7877
2.06400	7874
2.06467	7870
2.06533	7867
2.06600	7864
2.06667	7860
2.06733	7857
2.06800	7854
2.06867	7850
2.06933	7847
2.07000	7844
2.07067	7841
2.07133	7838
2.07200	7835
2.07267	7831
2.07333	7828
2.07400	7825
2.07467	7822
2.07533	7820
2.07600	7817
2.07667	7814
2.07733	7811
2.07800	7808
2.07867	7805
2.07933	7803
2.08000	7800
2.08067	7797
2.08133	7795
2.08200	7792
2.08267	7789
2.08333	7787
2.08400	7784
2.08467	7782
2.08533	7779
2.08600	7776
2.08667	7774
2.08733	7771
2.08800	7768
2.08867	7766
2.08933	7763
2.09000	7760
2.09067	7758
2.09133	7755
2.09200	7753
2.09267	7750
2.09333	7748
2.09400	7745
2.09467	7743
2.09533	7740
2.09600	7738
2.09667	7735
2.09733	7733
2.09800	7730
2.09867	7728
2.09933	7725
2.10000	7723
2.10067	7720
2.10133	7718
2.10200	7715
2.10267	7713
2.10333	7710
2.10400	7708
2.10467	7705
2.10533	7703
2.10600	7700
2.10667	7698
2.10733	7695
2.10800	7693
2.10867	7690
2.10933	7688
2.11000	7685
2.11067	7683
2.11133	7680
2.11200	7678
2.11267	7675
2.11333	7673
2.11400	7670
2.11467	7668
2.11533	7665
2.11600	7663
2.11667	7661
2.11733	7658
2.11800	7656
2.11867	7653
2.11933	7651
2.12000	7649
2.12067	7647
2.12133	7644
2.12200	7642
2.12267	7640
2.12333	7637
2.12400	7635
2.12467	7633
2.12533	7631
2.12600	7629
2.12667	7626
2.12733	7624
2.12800	7622
2.12867	7620
2.12933	7618
2.13000	7615
2.13067	7613
2.13133	7611
2.13200	7609
2.13267	7607
2.13333	7604
2.13400	7602
2.13467	7600
2.13533	7598
2.13600	7596
2.13667	7594
2.13733	7591
2.13800	7589
2.13867	7587
2.13933	7585
2.14000	7583
2.14067	7580
2.14133	7578
2.14200	7576
2.14267	7574
2.14333	7572
2.14400	7569
2.14467	7567
2.14533	7565
2.14600	7563
2.14667	7561
2.14733	7558
2.14800	7556
2.14867	7554
2.14933	7552
2.15000	7550
2.15067	7548
2.15133	7546
2.15200	7544
2.15267	7542
2.15333	7540
2.15400	7538
2.15467	7536
2.15533	7534
2.15600	7532
2.15667	7530
2.15733	7528
2.15800	7526
2.15867	7524
2.15933	7522
2.16000	7520
2.16067	7518
2.16133	7516
2.16200	7514
2.16267	7512
2.16333	7510
2.16400	7508
2.16467	7506
2.16533	7504
2.16600	7502
2.16667	7500
2.16733	7498
2.16800	7496
2.16867	7494
2.16933	7492
2.17000	7490
2.17067	7488
2.17133	7487
2.17200	7485
2.17267	7483
2.17333	7481
2.17400	7479
2.17467	7478
2.17533	7476
2.17600	7474
2.17667	7472
2.17733	7471
2.17800	7469
2.17867	7467
2.17933	7465
2.18000	7464
2.18067	7462
2.18133	7460
2.18200	7458
2.18267	7456
2.18333	7455
2.18400	7453
2.18467	7451
2.18533	7449
2.18600	7448
2.18667	7446
2.18733	7444
2.18800	7442
2.18867	7440
2.18933	7439
2.19000	7437
2.19067	7436
2.19133	7434
2.19200	7432
2.19267	7431
2.19333	7429
2.19400	7428
2.19467	7426
2.19533	7425
2.19600	7424
2.19667	7422
2.19733	7421
2.19800	7420
2.19867	7419
2.19933	7417
2.20000	7416
2.20067	7415
2.20133	7414
2.20200	7413
2.20267	7412
2.20333	7411
2.20400	7410
2.20467	7410
2.20533	7409
2.20600	7408
2.20667	7408
2.20733	7407
2.20800	7407
2.20867	7407
2.20933	7407
2.21000	7407
2.21067	7407
2.21133	7407
2.21200	7407
2.21267	7408
2.21333	7409
2.21400	7410
2.21467	7410
2.21533	7412
2.21600	7413
2.21667	7414
2.21733	7416
2.21800	7417
2.21867	7419
2.21933	7421
2.22000	7423
2.22067	7425
2.22133	7427
2.22200	7429
2.22267	7431
2.22333	7433
2.22400	7436
2.22467	7438
2.22533	7440
2.22600	7443
2.22667	7445
2.22733	7447
2.22800	7449
2.22867	7451
2.22933	7453
2.23000	7455
2.23067	7457
2.23133	7458
2.23200	7460
2.23267	7461
2.23333	7462
2.23400	7463
2.23467	7464
2.23533	7465
2.23600	7466
2.23667	7466
2.23733	7466
2.23800	7466
2.23867	7467
2.23933	7466
2.24000	7466
2.24067	7466
2.24133	7466
2.24200	7465
2.24267	7465
2.24333	7464
2.24400	7464
2.24467	7463
2.24533	7462
2.24600	7462
2.24667	7461
2.24733	7460
2.24800	7459
2.24867	7458
2.24933	7457
2.25000	7457
2.25067	7456
2.25133	7455
2.25200	7454
2.25267	7453
2.25333	7452
2.25400	7451
2.25467	7450
2.25533	7449
2.25600	7448
2.25667	7447
2.25733	7445
2.25800	7444
2.25867	7443
2.25933	7441
2.26000	7440
2.26067	7438
2.26133	7437
2.26200	7435
2.26267	7434
2.26333	7432
2.26400	7430
2.26467	7429
2.26533	7427
2.26600	7425
2.26667	7423
2.26733	7421
2.26800	7419
2.26867	7417
2.26933	7415
2.27000	7413
2.27067	7411
2.27133	7409
2.27200	7407
2.27267	7405
2.27333	7403
2.27400	7400
2.27467	7398
2.27533	7396
2.27600	7393
2.27667	7391
2.27733	7388
2.27800	7385
2.27867	7383
2.27933	7380
2.28000	7378
2.28067	7375
2.28133	7372
2.28200	7369
2.28267	7367
2.28333	7364
2.28400	7361
2.28467	7359
2.28533	7356
2.28600	7353
2.28667	7350
2.28733	7348
2.28800	7345
2.28867	7342
2.28933	7340
2.29000	7337
2.29067	7334
2.29133	7332
2.29200	7329
2.29267	7327
2.29333	7324
2.29400	7322
2.29467	7319
2.29533	7317
2.29600	7314
2.29667	7312
2.29733	7310
2.29800	7307
2.29867	7305
2.29933	7302
2.30000	7300
2.30067	7298
2.30133	7296
2.30200	7293
2.30267	7291
2.30333	7289
2.30400	7287
2.30467	7285
2.30533	7283
2.30600	7281
2.30667	7279
2.30733	7277
2.30800	7276
2.30867	7274
2.30933	7272
2.31000	7271
2.31067	7269
2.31133	7268
2.31200	7266
2.31267	7265
2.31333	7263
2.31400	7262
2.31467	7261
2.31533	7260
2.31600	7259
2.31667	7257
2.31733	7256
2.31800	7256
2.31867	7255
2.31933	7254
2.32000	7253
2.32067	7252
2.32133	7251
2.32200	7251
2.32267	7250
2.32333	7250
2.32400	7249
2.32467	7249
2.32533	7248
2.32600	7248
2.32667	7247
2.32733	7247
2.32800	7247
2.32867	7246
2.32933	7246
2.33000	7246
2.33067	7245
2.33133	7245
2.33200	7245
2.33267	7245
2.33333	7244
2.33400	7244
2.33467	7244
2.33533	7244
2.33600	7244
2.33667	7244
2.33733	7244
2.33800	7244
2.33867	7244
2.33933	7244
2.34000	7244
2.34067	7244
2.34133	7244
2.34200	7244
2.34267	7244
2.34333	7245
2.34400	7245
2.34467	7245
2.34533	7245
2.34600	7245
2.34667	7246
2.34733	7246
2.34800	7246
2.34867	7246
2.34933	7247
2.35000	7247
2.35067	7247
2.35133	7248
2.35200	7248
2.35267	7249
2.35333	7249
2.35400	7249
2.35467	7250
2.35533	7250
2.35600	7251
2.35667	7251
2.35733	7251
2.35800	7252
2.35867	7252
2.35933	7253
2.36000	7253
2.36067	7253
2.36133	7254
2.36200	7254
2.36267	7254
2.36333	7254
2.36400	7255
2.36467	7255
2.36533	7255
2.36600	7255
2.36667	7255
2.36733	7255
2.36800	7255
2.36867	7256
2.36933	7256
2.37000	7256
2.37067	7255
2.37133	7255
2.37200	7255
2.37267	7255
2.37333	7255
2.37400	7255
2.37467	7254
2.37533	7254
2.37600	7253
2.37667	7253
2.37733	7252
2.37800	7252
2.37867	7251
2.37933	7250
2.38000	7250
2.38067	7249
2.38133	7248
2.38200	7247
2.38267	7247
2.38333	7246
2.38400	7245
2.38467	7244
2.38533	7243
2.38600	7242
2.38667	7242
2.38733	7241
2.38800	7240
2.38867	7239
2.38933	7238
2.39000	7237
2.39067	7236
2.39133	7235
2.39200	7234
2.39267	7233
2.39333	7232
2.39400	7231
2.39467	7230
2.39533	7229
2.39600	7228
2.39667	7227
2.39733	7226
2.39800	7225
2.39867	7224
2.39933	7223
2.40000	7222
2.40067	7221
2.40133	7220
2.40200	7219
2.40267	7218
2.40333	7216
2.40400	7215
2.40467	7214
2.40533	7213
2.40600	7212
2.40667	7211
2.40733	7210
2.40800	7209
2.40867	7208
2.40933	7207
2.41000	7206
2.41067	7205
2.41133	7204
2.41200	7203
2.41267	7202
2.41333	7201
2.41400	7200
2.41467	7199
2.41533	7198
2.41600	7198
2.41667	7197
2.41733	7196
2.41800	7195
2.41867	7194
2.41933	7194
2.42000	7193
2.42067	7192
2.42133	7192
2.42200	7191
2.42267	7190
2.42333	7189
2.42400	7189
2.42467	7188
2.42533	7187
2.42600	7186
2.42667	7185
2.42733	7185
2.42800	7184
2.42867	7183
2.42933	7182
2.43000	7181
2.43067	7180
2.43133	7180
2.43200	7179
2.43267	7178
2.43333	7177
2.43400	7176
2.43467	7174
2.43533	7173
2.43600	7172
2.43667	7171
2.43733	7170
2.43800	7168
2.43867	7167
2.43933	7166
2.44000	7164
2.44067	7163
2.44133	7161
2.44200	7160
2.44267	7158
2.44333	7156
2.44400	7155
2.44467	7153
2.44533	7151
2.44600	7150
2.44667	7148
2.44733	7146
2.44800	7144
2.44867	7143
2.44933	7141
2.45000	7139
2.45067	7137
2.45133	7135
2.45200	7134
2.45267	7132
2.45333	7130
2.45400	7128
2.45467	7126
2.45533	7125
2.45600	7123
2.45667	7121
2.45733	7119
2.45800	7117
2.45867	7116
2.45933	7114
2.46000	7112
2.46067	7110
2.46133	7108
2.46200	7106
2.46267	7104
2.46333	7103
2.46400	7101
2.46467	7099
2.46533	7097
2.46600	7095
2.46667	7093
2.46733	7091
2.46800	7089
2.46867	7086
2.46933	7084
2.47000	7082
2.47067	7080
2.47133	7078
2.47200	7076
2.47267	7074
2.47333	7072
2.47400	7069
2.47467	7067
2.47533	7065
2.47600	7063
2.47667	7061
2.47733	7059
2.47800	7057
2.47867	7055
2.47933	7053
2.48000	7050
2.48067	7048
2.48133	7046
2.48200	7044
2.48267	7042
2.48333	7040
2.48400	7037
2.48467	7035
2.48533	7033
2.48600	7031
2.48667	7028
2.48733	7026
2.48800	7024
2.48867	7022
2.48933	7020
2.49000	7017
2.49067	7015
2.49133	7013
2.49200	7011
2.49267	7009
2.49333	7007
2.49400	7005
2.49467	7002
2.49533	7000
2.49600	6998
2.49667	6996
2.49733	6994
2.49800	6992
2.49867	6989
2.49933	6987
2.50000	6985
2.50067	6983
2.50133	6980
2.50200	6978
2.50267	6976
2.50333	6973
2.50400	6971
2.50467	6968
2.50533	6966
2.50600	6963
2.50667	6961
2.50733	6958
2.50800	6956
2.50867	6953
2.50933	6951
2.51000	6949
2.51067	6946
2.51133	6944
2.51200	6941
2.51267	6939
2.51333	6937
2.51400	6934
2.51467	6932
2.51533	6930
2.51600	6927
2.51667	6925
2.51733	6923
2.51800	6920
2.51867	6918
2.51933	6916
2.52000	6914
2.52067	6911
2.52133	6909
2.52200	6907
2.52267	6904
2.52333	6902
2.52400	6900
2.52467	6897
2.52533	6895
2.52600	6893
2.52667	6890
2.52733	6888
2.52800	6886
2.52867	6883
2.52933	6881
2.53000	6879
2.53067	6877
2.53133	6874
2.53200	6872
2.53267	6870
2.53333	6868
2.53400	6865
2.53467	6863
2.53533	6861
2.53600	6859
2.53667	6856
2.53733	6854
2.53800	6852
2.53867	6850
2.53933	6847
2.54000	6845
2.54067	6843
2.54133	6841
2.54200	6839
2.54267	6836
2.54333	6834
2.54400	6832
2.54467	6830
2.54533	6828
2.54600	6826
2.54667	6824
2.54733	6821
2.54800	6819
2.54867	6817
2.54933	6815
2.55000	6813
2.55067	6811
2.55133	6809
2.55200	6806
2.55267	6804
2.55333	6802
2.55400	6800
2.55467	6798
2.55533	6796
2.55600	6794
2.55667	6792
2.55733	6790
2.55800	6788
2.55867	6786
2.55933	6784
2.56000	6782
2.56067	6780
2.56133	6778
2.56200	6777
2.56267	6775
2.56333	6773
2.56400	6771
2.56467	6769
2.56533	6768
2.56600	6766
2.56667	6764
2.56733	6762
2.56800	6761
2.56867	6759
2.56933	6757
2.57000	6756
2.57067	6754
2.57133	6752
2.57200	6751
2.57267	6749
2.57333	6747
2.57400	6746
2.57467	6744
2.57533	6743
2.57600	6741
2.57667	6740
2.57733	6738
2.57800	6737
2.57867	6735
2.57933	6734
2.58000	6732
2.58067	6731
2.58133	6729
2.58200	6728
2.58267	6726
2.58333	6725
2.58400	6723
2.58467	6722
2.58533	6720
2.58600	6719
2.58667	6717
2.58733	6716
2.58800	6714
2.58867	6713
2.58933	6711
2.59000	6710
2.59067	6708
2.59133	6706
2.59200	6705
2.59267	6703
2.59333	6702
2.59400	6700
2.59467	6699
2.59533	6698
2.59600	6696
2.59667	6695
2.59733	6693
2.59800	6692
2.59867	6691
2.59933	6690
2.60000	6688
2.60067	6687
2.60133	6686
2.60200	6685
2.60267	6684
2.60333	6683
2.60400	6681
2.60467	6680
2.60533	6679
2.60600	6678
2.60667	6677
2.60733	6676
2.60800	6675
2.60867	6674
2.60933	6673
2.61000	6672
2.61067	6671
2.61133	6670
2.61200	6668
2.61267	6667
2.61333	6666
2.61400	6665
2.61467	6664
2.61533	6662
2.61600	6661
2.61667	6660
2.61733	6659
2.61800	6658
2.61867	6657
2.61933	6656
2.62000	6654
2.62067	6653
2.62133	6652
2.62200	6651
2.62267	6649
2.62333	6648
2.62400	6646
2.62467	6645
2.62533	6644
2.62600	6642
2.62667	6641
2.62733	6639
2.62800	6638
2.62867	6636
2.62933	6635
2.63000	6633
2.63067	6632
2.63133	6630
2.63200	6628
2.63267	6627
2.63333	6625
2.63400	6624
2.63467	6622
2.63533	6620
2.63600	6619
2.63667	6617
2.63733	6615
2.63800	6614
2.63867	6612
2.63933	6610
2.64000	6608
2.64067	6606
2.64133	6605
2.64200	6603
2.64267	6601
2.64333	6599
2.64400	6597
2.64467	6595
2.64533	6594
2.64600	6592
2.64667	6590
2.64733	6588
2.64800	6586
2.64867	6584
2.64933	6582
2.65000	6581
2.65067	6579
2.65133	6577
2.65200	6575
2.65267	6573
2.65333	6571
2.65400	6569
2.65467	6567
2.65533	6566
2.65600	6564
2.65667	6562
2.65733	6560
2.65800	6558
2.65867	6557
2.65933	6555
2.66000	6553
2.66067	6551
2.66133	6550
2.66200	6548
2.66267	6546
2.66333	6545
2.66400	6543
2.66467	6541
2.66533	6540
2.66600	6538
2.66667	6536
2.66733	6534
2.66800	6533
2.66867	6531
2.66933	6530
2.67000	6528
2.67067	6526
2.67133	6525
2.67200	6523
2.67267	6521
2.67333	6520
2.67400	6518
2.67467	6516
2.67533	6515
2.67600	6513
2.67667	6511
2.67733	6510
2.67800	6508
2.67867	6507
2.67933	6505
2.68000	6503
2.68067	6502
2.68133	6500
2.68200	6499
2.68267	6497
2.68333	6495
2.68400	6494
2.68467	6492
2.68533	6490
2.68600	6489
2.68667	6487
2.68733	6485
2.68800	6484
2.68867	6482
2.68933	6480
2.69000	6479
2.69067	6477
2.69133	6475
2.69200	6474
2.69267	6472
2.69333	6471
2.69400	6469
2.69467	6467
2.69533	6466
2.69600	6464
2.69667	6463
2.69733	6461
2.69800	6460
2.69867	6458
2.69933	6457
2.70000	6455
2.70067	6454
2.70133	6452
2.70200	6451
2.70267	6449
2.70333	6448
2.70400	6446
2.70467	6445
2.70533	6443
2.70600	6442
2.70667	6441
2.70733	6439
2.70800	6438
2.70867	6437
2.70933	6435
2.71000	6434
2.71067	6433
2.71133	6431
2.71200	6430
2.71267	6429
2.71333	6427
2.71400	6426
2.71467	6425
2.71533	6423
2.71600	6422
2.71667	6421
2.71733	6420
2.71800	6418
2.71867	6417
2.71933	6416
2.72000	6415
2.72067	6413
2.72133	6412
2.72200	6411
2.72267	6410
2.72333	6409
2.72400	6408
2.72467	6407
2.72533	6406
2.72600	6405
2.72667	6404
2.72733	6403
2.72800	6402
2.72867	6401
2.72933	6400
2.73000	6399
2.73067	6398
2.73133	6397
2.73200	6396
2.73267	6395
2.73333	6394
2.73400	6393
2.73467	6392
2.73533	6391
2.73600	6390
2.73667	6389
2.73733	6388
2.73800	6387
2.73867	6386
2.73933	6385
2.74000	6384
2.74067	6383
2.74133	6382
2.74200	6381
2.74267	6380
2.74333	6379
2.74400	6378
2.74467	6377
2.74533	6376
2.74600	6375
2.74667	6374
2.74733	6373
2.74800	6372
2.74867	6371
2.74933	6371
2.75000	6370
2.75067	6369
2.75133	6368
2.75200	6367
2.75267	6366
2.75333	6366
2.75400	6365
2.75467	6364
2.75533	6364
2.75600	6363
2.75667	6362
2.75733	6362
2.75800	6361
2.75867	6361
2.75933	6361
2.76000	6360
2.76067	6360
2.76133	6360
2.76200	6359
2.76267	6359
2.76333	6359
2.76400	6359
2.76467	6359
2.76533	6359
2.76600	6359
2.76667	6359
2.76733	6359
2.76800	6359
2.76867	6360
2.76933	6360
2.77000	6360
2.77067	6360
2.77133	6360
2.77200	6361
2.77267	6361
2.77333	6361
2.77400	6362
2.77467	6362
2.77533	6363
2.77600	6363
2.77667	6364
2.77733	6364
2.77800	6365
2.77867	6366
2.77933	6366
2.78000	6367
2.78067	6368
2.78133	6369
2.78200	6370
2.78267	6371
2.78333	6372
2.78400	6373
2.78467	6375
2.78533	6376
2.78600	6377
2.78667	6379
2.78733	6380
2.78800	6381
2.78867	6383
2.78933	6384
2.79000	6386
2.79067	6387
2.79133	6389
2.79200	6391
2.79267	6392
2.79333	6394
2.79400	6396
2.79467	6398
2.79533	6400
2.79600	6402
2.79667	6404
2.79733	6406
2.79800	6408
2.79867	6411
2.79933	6413
2.80000	6415
2.80067	6418
2.80133	6420
2.80200	6423
2.80267	6426
2.80333	6428
2.80400	6431
2.80467	6434
2.80533	6436
2.80600	6439
2.80667	6442
2.80733	6445
2.80800	6448
2.80867	6451
2.80933	6454
2.81000	6456
2.81067	6459
2.81133	6462
2.81200	6465
2.81267	6468
2.81333	6471
2.81400	6473
2.81467	6476
2.81533	6479
2.81600	6482
2.81667	6484
2.81733	6487
2.81800	6489
2.81867	6492
2.81933	6494
2.82000	6497
2.82067	6499
2.82133	6501
2.82200	6503
2.82267	6505
2.82333	6507
2.82400	6509
2.82467	6511
2.82533	6512
2.82600	6514
2.82667	6515
2.82733	6516
2.82800	6517
2.82867	6518
2.82933	6519
2.83000	6520
2.83067	6520
2.83133	6521
2.83200	6521
2.83267	6521
2.83333	6521
2.83400	6521
2.83467	6521
2.83533	6521
2.83600	6520
2.83667	6520
2.83733	6519
2.83800	6519
2.83867	6518
2.83933	6517
2.84000	6516
2.84067	6515
2.84133	6513
2.84200	6512
2.84267	6511
2.84333	6509
2.84400	6507
2.84467	6506
2.84533	6504
2.84600	6502
2.84667	6500
2.84733	6498
2.84800	6496
2.84867	6494
2.84933	6492
2.85000	6489
2.85067	6487
2.85133	6485
2.85200	6483
2.85267	6480
2.85333	6478
2.85400	6475
2.85467	6473
2.85533	6470
2.85600	6468
2.85667	6465
2.85733	6463
2.85800	6460
2.85867	6458
2.85933	6455
2.86000	6453
2.86067	6450
2.86133	6447
2.86200	6445
2.86267	6442
2.86333	6440
2.86400	6438
2.86467	6435
2.86533	6433
2.86600	6431
2.86667	6429
2.86733	6427
2.86800	6425
2.86867	6423
2.86933	6421
2.87000	6419
2.87067	6418
2.87133	6416
2.87200	6414
2.87267	6413
2.87333	6412
2.87400	6410
2.87467	6409
2.87533	6408
2.87600	6407
2.87667	6407
2.87733	6406
2.87800	6406
2.87867	6405
2.87933	6405
2.88000	6405
2.88067	6405
2.88133	6406
2.88200	6406
2.88267	6407
2.88333	6408
2.88400	6409
2.88467	6410
2.88533	6412
2.88600	6414
2.88667	6416
2.88733	6418
2.88800	6420
2.88867	6423
2.88933	6426
2.89000	6429
2.89067	6433
2.89133	6436
2.89200	6440
2.89267	6444
2.89333	6448
2.89400	6453
2.89467	6458
2.89533	6462
2.89600	6467
2.89667	6473
2.89733	6478
2.89800	6483
2.89867	6489
2.89933	6495
2.90000	6501
2.90067	6507
2.90133	6513
2.90200	6519
2.90267	6525
2.90333	6532
2.90400	6538
2.90467	6544
2.90533	6550
2.90600	6556
2.90667	6563
2.90733	6569
2.90800	6575
2.90867	6580
2.90933	6586
2.91000	6592
2.91067	6597
2.91133	6602
2.91200	6608
2.91267	6613
2.91333	6617
2.91400	6622
2.91467	6626
2.91533	6630
2.91600	6634
2.91667	6637
2.91733	6640
2.91800	6643
2.91867	6646
2.91933	6648
2.92000	6650
2.92067	6652
2.92133	6653
2.92200	6654
2.92267	6654
2.92333	6655
2.92400	6655
2.92467	6654
2.92533	6653
2.92600	6652
2.92667	6651
2.92733	6649
2.92800	6647
2.92867	6645
2.92933	6642
2.93000	6639
2.93067	6636
2.93133	6632
2.93200	6628
2.93267	6624
2.93333	6620
2.93400	6615
2.93467	6610
2.93533	6605
2.93600	6599
2.93667	6593
2.93733	6587
2.93800	6581
2.93867	6575
2.93933	6568
2.94000	6561
2.94067	6554
2.94133	6547
2.94200	6540
2.94267	6533
2.94333	6525
2.94400	6517
2.94467	6510
2.94533	6502
2.94600	6494
2.94667	6486
2.94733	6478
2.94800	6470
2.94867	6462
2.94933	6454
2.95000	6446
2.95067	6439
2.95133	6431
2.95200	6423
2.95267	6415
2.95333	6407
2.95400	6399
2.95467	6391
2.95533	6383
2.95600	6375
2.95667	6367
2.95733	6360
2.95800	6352
2.95867	6344
2.95933	6337
2.96000	6329
2.96067	6322
2.96133	6315
2.96200	6308
2.96267	6300
2.96333	6293
2.96400	6286
2.96467	6280
2.96533	6273
2.96600	6266
2.96667	6260
2.96733	6253
2.96800	6247
2.96867	6240
2.96933	6234
2.97000	6228
2.97067	6222
2.97133	6216
2.97200	6210
2.97267	6204
2.97333	6198
2.97400	6192
2.97467	6187
2.97533	6181
2.97600	6176
2.97667	6171
2.97733	6166
2.97800	6161
2.97867	6155
2.97933	6151
2.98000	6146
2.98067	6141
2.98133	6136
2.98200	6131
2.98267	6127
2.98333	6122
2.98400	6118
2.98467	6113
2.98533	6109
2.98600	6105
2.98667	6101
2.98733	6097
2.98800	6093
2.98867	6089
2.98933	6085
2.99000	6081
2.99067	6077
2.99133	6073
2.99200	6070
2.99267	6066
2.99333	6063
2.99400	6059
2.99467	6056
2.99533	6053
2.99600	6049
2.99667	6046
2.99733	6043
2.99800	6040
2.99867	6037
2.99933	6033
3.00000	6030
3.00067	6027
3.00133	6025
3.00200	6022
3.00267	6019
3.00333	6016
3.00400	6014
3.00467	6011
3.00533	6008
3.00600	6006
3.00667	6003
3.00733	6001
3.00800	5999
3.00867	5996
3.00933	5994
3.01000	5992
3.01067	5990
3.01133	5987
3.01200	5985
3.01267	5983
3.01333	5981
3.01400	5979
3.01467	5977
3.01533	5975
3.01600	5974
3.01667	5972
3.01733	5970
3.01800	5968
3.01867	5967
3.01933	5965
3.02000	5963
3.02067	5962
3.02133	5960
3.02200	5958
3.02267	5957
3.02333	5955
3.02400	5954
3.02467	5953
3.02533	5951
3.02600	5950
3.02667	5948
3.02733	5947
3.02800	5946
3.02867	5945
3.02933	5944
3.03000	5942
3.03067	5941
3.03133	5940
3.03200	5939
3.03267	5938
3.03333	5937
3.03400	5936
3.03467	5935
3.03533	5934
3.03600	5934
3.03667	5933
3.03733	5932
3.03800	5931
3.03867	5931
3.03933	5930
3.04000	5930
3.04067	5929
3.04133	5929
3.04200	5928
3.04267	5928
3.04333	5928
3.04400	5928
3.04467	5928
3.04533	5928
3.04600	5929
3.04667	5929
3.04733	5929
3.04800	5930
3.04867	5930
3.04933	5931
3.05000	5932
3.05067	5933
3.05133	5934
3.05200	5935
3.05267	5936
3.05333	5937
3.05400	5939
3.05467	5941
3.05533	5943
3.05600	5945
3.05667	5947
3.05733	5949
3.05800	5952
3.05867	5955
3.05933	5957
3.06000	5960
3.06067	5963
3.06133	5967
3.06200	5970
3.06267	5974
3.06333	5978
3.06400	5982
3.06467	5986
3.06533	5990
3.06600	5995
3.06667	5999
3.06733	6004
3.06800	6009
3.06867	6015
3.06933	6020
3.07000	6025
3.07067	6031
3.07133	6037
3.07200	6043
3.07267	6049
3.07333	6055
3.07400	6062
3.07467	6068
3.07533	6075
3.07600	6082
3.07667	6089
3.07733	6096
3.07800	6103
3.07867	6110
3.07933	6117
3.08000	6124
3.08067	6132
3.08133	6139
3.08200	6147
3.08267	6154
3.08333	6162
3.08400	6169
3.08467	6177
3.08533	6184
3.08600	6192
3.08667	6199
3.08733	6206
3.08800	6214
3.08867	6221
3.08933	6228
3.09000	6234
3.09067	6241
3.09133	6248
3.09200	6254
3.09267	6260
3.09333	6266
3.09400	6272
3.09467	6278
3.09533	6283
3.09600	6288
3.09667	6293
3.09733	6297
3.09800	6302
3.09867	6306
3.09933	6310
3.10000	6313
3.10067	6316
3.10133	6319
3.10200	6322
3.10267	6325
3.10333	6327
3.10400	6329
3.10467	6331
3.10533	6332
3.10600	6334
3.10667	6335
3.10733	6335
3.10800	6336
3.10867	6336
3.10933	6336
3.11000	6335
3.11067	6335
3.11133	6334
3.11200	6333
3.11267	6331
3.11333	6330
3.11400	6328
3.11467	6326
3.11533	6324
3.11600	6322
3.11667	6319
3.11733	6316
3.11800	6314
3.11867	6310
3.11933	6307
3.12000	6304
3.12067	6300
3.12133	6296
3.12200	6293
3.12267	6289
3.12333	6284
3.12400	6280
3.12467	6276
3.12533	6272
3.12600	6267
3.12667	6263
3.12733	6258
3.12800	6253
3.12867	6249
3.12933	6244
3.13000	6239
3.13067	6235
3.13133	6230
3.13200	6225
3.13267	6221
3.13333	6216
3.13400	6211
3.13467	6207
3.13533	6202
3.13600	6198
3.13667	6194
3.13733	6189
3.13800	6185
3.13867	6180
3.13933	6176
3.14000	6172
3.14067	6168
3.14133	6163
3.14200	6159
3.14267	6155
3.14333	6151
3.14400	6147
3.14467	6143
3.14533	6139
3.14600	6135
3.14667	6132
3.14733	6128
3.14800	6125
3.14867	6121
3.14933	6118
3.15000	6115
3.15067	6111
3.15133	6108
3.15200	6105
3.15267	6102
3.15333	6099
3.15400	6097
3.15467	6094
3.15533	6092
3.15600	6089
3.15667	6087
3.15733	6084
3.15800	6082
3.15867	6080
3.15933	6078
3.16000	6076
3.16067	6074
3.16133	6072
3.16200	6071
3.16267	6069
3.16333	6068
3.16400	6066
3.16467	6065
3.16533	6064
3.16600	6063
3.16667	6061
3.16733	6060
3.16800	6059
3.16867	6059
3.16933	6058
3.17000	6057
3.17067	6056
3.17133	6055
3.17200	6055
3.17267	6054
3.17333	6053
3.17400	6053
3.17467	6052
3.17533	6052
3.17600	6051
3.17667	6051
3.17733	6051
3.17800	6050
3.17867	6050
3.17933	6050
3.18000	6049
3.18067	6049
3.18133	6049
3.18200	6049
3.18267	6049
3.18333	6049
3.18400	6048
3.18467	6048
3.18533	6048
3.18600	6048
3.18667	6048
3.18733	6049
3.18800	6049
3.18867	6049
3.18933	6049
3.19000	6049
3.19067	6049
3.19133	6050
3.19200	6050
3.19267	6050
3.19333	6051
3.19400	6051
3.19467	6051
3.19533	6052
3.19600	6052
3.19667	6053
3.19733	6054
3.19800	6054
3.19867	6055
3.19933	6056
3.20000	6057
3.20067	6057
3.20133	6058
3.20200	6059
3.20267	6060
3.20333	6061
3.20400	6062
3.20467	6063
3.20533	6065
3.20600	6066
3.20667	6067
3.20733	6069
3.20800	6070
3.20867	6071
3.20933	6073
3.21000	6074
3.21067	6076
3.21133	6077
3.21200	6079
3.21267	6080
3.21333	6082
3.21400	6084
3.21467	6085
3.21533	6087
3.21600	6089
3.21667	6090
3.21733	6092
3.21800	6094
3.21867	6096
3.21933	6098
3.22000	6099
3.22067	6101
3.22133	6103
3.22200	6105
3.22267	6107
3.22333	6108
3.22400	6110
3.22467	6112
3.22533	6114
3.22600	6116
3.22667	6118
3.22733	6120
3.22800	6122
3.22867	6124
3.22933	6126
3.23000	6128
3.23067	6130
3.23133	6132
3.23200	6134
3.23267	6136
3.23333	6138
3.23400	6140
3.23467	6142
3.23533	6144
3.23600	6147
3.23667	6149
3.23733	6151
3.23800	6153
3.23867	6155
3.23933	6157
3.24000	6159
3.24067	6162
3.24133	6164
3.24200	6166
3.24267	6168
3.24333	6170
3.24400	6172
3.24467	6174
3.24533	6177
3.24600	6179
3.24667	6181
3.24733	6183
3.24800	6185
3.24867	6187
3.24933	6190
3.25000	6192
3.25067	6194
3.25133	6196
3.25200	6198
3.25267	6200
3.25333	6203
3.25400	6205
3.25467	6207
3.25533	6209
3.25600	6211
3.25667	6214
3.25733	6216
3.25800	6218
3.25867	6221
3.25933	6223
3.26000	6225
3.26067	6227
3.26133	6230
3.26200	6232
3.26267	6234
3.26333	6237
3.26400	6239
3.26467	6242
3.26533	6244
3.26600	6247
3.26667	6249
3.26733	6252
3.26800	6255
3.26867	6257
3.26933	6260
3.27000	6263
3.27067	6265
3.27133	6268
3.27200	6271
3.27267	6273
3.27333	6276
3.27400	6279
3.27467	6282
3.27533	6284
3.27600	6287
3.27667	6290
3.27733	6293
3.27800	6295
3.27867	6298
3.27933	6301
3.28000	6304
3.28067	6307
3.28133	6309
3.28200	6312
3.28267	6315
3.28333	6318
3.28400	6321
3.28467	6323
3.28533	6326
3.28600	6329
3.28667	6332
3.28733	6335
3.28800	6338
3.28867	6340
3.28933	6343
3.29000	6346
3.29067	6349
3.29133	6351
3.29200	6354
3.29267	6357
3.29333	6360
3.29400	6362
3.29467	6365
3.29533	6367
3.29600	6370
3.29667	6372
3.29733	6375
3.29800	6378
3.29867	6380
3.29933	6383
3.30000	6385
3.30067	6388
3.30133	6390
3.30200	6393
3.30267	6395
3.30333	6398
3.30400	6400
3.30467	6403
3.30533	6405
3.30600	6407
3.30667	6410
3.30733	6412
3.30800	6414
3.30867	6417
3.30933	6419
3.31000	6421
3.31067	6423
3.31133	6426
3.31200	6428
3.31267	6430
3.31333	6432
3.31400	6435
3.31467	6437
3.31533	6439
3.31600	6441
3.31667	6443
3.31733	6446
3.31800	6448
3.31867	6450
3.31933	6452
3.32000	6454
3.32067	6456
3.32133	6458
3.32200	6459
3.32267	6461
3.32333	6463
3.32400	6465
3.32467	6467
3.32533	6468
3.32600	6470
3.32667	6472
3.32733	6473
3.32800	6475
3.32867	6477
3.32933	6478
3.33000	6480
3.33067	6481
3.33133	6483
3.33200	6484
3.33267	6486
3.33333	6487
3.33400	6489
3.33467	6490
3.33533	6492
3.33600	6493
3.33667	6494
3.33733	6496
3.33800	6497
3.33867	6498
3.33933	6500
3.34000	6501
3.34067	6502
3.34133	6504
3.34200	6505
3.34267	6506
3.34333	6507
3.34400	6508
3.34467	6510
3.34533	6511
3.34600	6512
3.34667	6513
3.34733	6514
3.34800	6515
3.34867	6516
3.34933	6517
3.35000	6517
3.35067	6518
3.35133	6519
3.35200	6520
3.35267	6521
3.35333	6521
3.35400	6522
3.35467	6523
3.35533	6523
3.35600	6524
3.35667	6525
3.35733	6525
3.35800	6526
3.35867	6526
3.35933	6527
3.36000	6527
3.36067	6528
3.36133	6528
3.36200	6528
3.36267	6529
3.36333	6529
3.36400	6529
3.36467	6530
3.36533	6530
3.36600	6530
3.36667	6530
3.36733	6531
3.36800	6531
3.36867	6531
3.36933	6531
3.37000	6531
3.37067	6531
3.37133	6531
3.37200	6531
3.37267	6531
3.37333	6531
3.37400	6531
3.37467	6531
3.37533	6531
3.37600	6531
3.37667	6531
3.37733	6531
3.37800	6530
3.37867	6530
3.37933	6530
3.38000	6530
3.38067	6530
3.38133	6529
3.38200	6529
3.38267	6529
3.38333	6529
3.38400	6528
3.38467	6528
3.38533	6528
3.38600	6527
3.38667	6527
3.38733	6527
3.38800	6526
3.38867	6526
3.38933	6525
3.39000	6525
3.39067	6525
3.39133	6524
3.39200	6524
3.39267	6523
3.39333	6522
3.39400	6522
3.39467	6521
3.39533	6520
3.39600	6520
3.39667	6519
3.39733	6518
3.39800	6517
3.39867	6516
3.39933	6515
3.40000	6515
3.40067	6514
3.40133	6513
3.40200	6512
3.40267	6511
3.40333	6510
3.40400	6509
3.40467	6508
3.40533	6507
3.40600	6506
3.40667	6505
3.40733	6504
3.40800	6503
3.40867	6502
3.40933	6501
3.41000	6500
3.41067	6499
3.41133	6498
3.41200	6496
3.41267	6495
3.41333	6494
3.41400	6493
3.41467	6491
3.41533	6490
3.41600	6488
3.41667	6487
3.41733	6485
3.41800	6484
3.41867	6482
3.41933	6481
3.42000	6479
3.42067	6477
3.42133	6476
3.42200	6474
3.42267	6472
3.42333	6471
3.42400	6469
3.42467	6467
3.42533	6465
3.42600	6463
3.42667	6462
3.42733	6460
3.42800	6458
3.42867	6456
3.42933	6454
3.43000	6452
3.43067	6450
3.43133	6448
3.43200	6446
3.43267	6444
3.43333	6441
3.43400	6439
3.43467	6437
3.43533	6435
3.43600	6432
3.43667	6430
3.43733	6428
3.43800	6426
3.43867	6423
3.43933	6421
3.44000	6419
3.44067	6417
3.44133	6414
3.44200	6412
3.44267	6409
3.44333	6407
3.44400	6405
3.44467	6402
3.44533	6400
3.44600	6398
3.44667	6395
3.44733	6393
3.44800	6391
3.44867	6388
3.44933	6386
3.45000	6384
3.45067	6382
3.45133	6380
3.45200	6378
3.45267	6375
3.45333	6373
3.45400	6371
3.45467	6369
3.45533	6367
3.45600	6366
3.45667	6364
3.45733	6362
3.45800	6360
3.45867	6358
3.45933	6356
3.46000	6355
3.46067	6353
3.46133	6351
3.46200	6350
3.46267	6348
3.46333	6347
3.46400	6345
3.46467	6344
3.46533	6342
3.46600	6341
3.46667	6339
3.46733	6338
3.46800	6337
3.46867	6336
3.46933	6334
3.47000	6333
3.47067	6332
3.47133	6331
3.47200	6330
3.47267	6329
3.47333	6328
3.47400	6328
3.47467	6327
3.47533	6326
3.47600	6326
3.47667	6325
3.47733	6325
3.47800	6325
3.47867	6325
3.47933	6324
3.48000	6324
3.48067	6325
3.48133	6325
3.48200	6325
3.48267	6325
3.48333	6326
3.48400	6326
3.48467	6327
3.48533	6328
3.48600	6329
3.48667	6330
3.48733	6331
3.48800	6332
3.48867	6334
3.48933	6335
3.49000	6337
3.49067	6339
3.49133	6341
3.49200	6343
3.49267	6346
3.49333	6349
3.49400	6351
3.49467	6354
3.49533	6358
3.49600	6361
3.49667	6365
3.49733	6369
3.49800	6373
3.49867	6378
3.49933	6382
3.50000	6387
3.50067	6393
3.50133	6399
3.50200	6405
3.50267	6411
3.50333	6418
3.50400	6425
3.50467	6433
3.50533	6441
3.50600	6450
3.50667	6459
3.50733	6468
3.50800	6479
3.50867	6489
3.50933	6501
3.51000	6513
3.51067	6525
3.51133	6538
3.51200	6552
3.51267	6567
3.51333	6582
3.51400	6598
3.51467	6615
3.51533	6633
3.51600	6652
3.51667	6671
3.51733	6691
3.51800	6712
3.51867	6734
3.51933	6757
3.52000	6781
3.52067	6805
3.52133	6831
3.52200	6857
3.52267	6885
3.52333	6913
3.52400	6943
3.52467	6973
3.52533	7005
3.52600	7038
3.52667	7072
3.52733	7107
3.52800	7143
3.52867	7180
3.52933	7219
3.53000	7258
3.53067	7299
3.53133	7341
3.53200	7384
3.53267	7428
3.53333	7474
3.53400	7521
3.53467	7569
3.53533	7618
3.53600	7669
3.53667	7720
3.53733	7773
3.53800	7827
3.53867	7882
3.53933	7939
3.54000	7996
3.54067	8055
3.54133	8114
3.54200	8175
3.54267	8237
3.54333	8299
3.54400	8363
3.54467	8428
3.54533	8494
3.54600	8560
3.54667	8628
3.54733	8696
3.54800	8766
3.54867	8836
3.54933	8907
3.55000	8978
3.55067	9050
3.55133	9123
3.55200	9197
3.55267	9271
3.55333	9346
3.55400	9421
3.55467	9496
3.55533	9572
3.55600	9647
3.55667	9723
3.55733	9799
3.55800	9876
3.55867	9952
3.55933	10027
3.56000	10103
3.56067	10179
3.56133	10254
3.56200	10329
3.56267	10403
3.56333	10477
3.56400	10550
3.56467	10623
3.56533	10695
3.56600	10766
3.56667	10837
3.56733	10907
3.56800	10976
3.56867	11044
3.56933	11111
3.57000	11178
3.57067	11243
3.57133	11308
3.57200	11372
3.57267	11435
3.57333	11497
3.57400	11557
3.57467	11617
3.57533	11676
3.57600	11734
3.57667	11792
3.57733	11848
3.57800	11903
3.57867	11957
3.57933	12010
3.58000	12062
3.58067	12113
3.58133	12163
3.58200	12212
3.58267	12260
3.58333	12308
3.58400	12354
3.58467	12399
3.58533	12444
3.58600	12487
3.58667	12530
3.58733	12572
3.58800	12613
3.58867	12653
3.58933	12693
3.59000	12732
3.59067	12769
3.59133	12807
3.59200	12843
3.59267	12878
3.59333	12913
3.59400	12947
3.59467	12980
3.59533	13012
3.59600	13043
3.59667	13074
3.59733	13104
3.59800	13133
3.59867	13161
3.59933	13188
3.60000	13215
3.60067	13240
3.60133	13265
3.60200	13289
3.60267	13312
3.60333	13334
3.60400	13356
3.60467	13376
3.60533	13396
3.60600	13415
3.60667	13433
3.60733	13451
3.60800	13467
3.60867	13483
3.60933	13497
3.61000	13511
3.61067	13524
3.61133	13535
3.61200	13546
3.61267	13556
3.61333	13565
3.61400	13573
3.61467	13580
3.61533	13585
3.61600	13590
3.61667	13594
3.61733	13596
3.61800	13597
3.61867	13598
3.61933	13597
3.62000	13595
3.62067	13591
3.62133	13587
3.62200	13581
3.62267	13575
3.62333	13567
3.62400	13557
3.62467	13547
3.62533	13535
3.62600	13521
3.62667	13507
3.62733	13491
3.62800	13473
3.62867	13455
3.62933	13434
3.63000	13413
3.63067	13390
3.63133	13365
3.63200	13339
3.63267	13312
3.63333	13283
3.63400	13253
3.63467	13221
3.63533	13188
3.63600	13153
3.63667	13118
3.63733	13081
3.63800	13042
3.63867	13003
3.63933	12962
3.64000	12920
3.64067	12876
3.64133	12832
3.64200	12786
3.64267	12740
3.64333	12692
3.64400	12643
3.64467	12594
3.64533	12543
3.64600	12491
3.64667	12439
3.64733	12386
3.64800	12332
3.64867	12277
3.64933	12221
3.65000	12165
3.65067	12108
3.65133	12051
3.65200	11992
3.65267	11934
3.65333	11874
3.65400	11815
3.65467	11754
3.65533	11694
3.65600	11633
3.65667	11571
3.65733	11510
3.65800	11448
3.65867	11385
3.65933	11323
3.66000	11260
3.66067	11198
3.66133	11135
3.66200	11072
3.66267	11009
3.66333	10946
3.66400	10883
3.66467	10821
3.66533	10758
3.66600	10696
3.66667	10633
3.66733	10571
3.66800	10510
3.66867	10448
3.66933	10387
3.67000	10326
3.67067	10265
3.67133	10205
3.67200	10145
3.67267	10086
3.67333	10027
3.67400	9969
3.67467	9911
3.67533	9853
3.67600	9796
3.67667	9740
3.67733	9684
3.67800	9628
3.67867	9574
3.67933	9519
3.68000	9466
3.68067	9413
3.68133	9360
3.68200	9308
3.68267	9257
3.68333	9206
3.68400	9156
3.68467	9106
3.68533	9058
3.68600	9009
3.68667	8962
3.68733	8915
3.68800	8868
3.68867	8822
3.68933	8777
3.69000	8733
3.69067	8689
3.69133	8645
3.69200	8603
3.69267	8561
3.69333	8519
3.69400	8478
3.69467	8438
3.69533	8399
3.69600	8360
3.69667	8321
3.69733	8283
3.69800	8246
3.69867	8209
3.69933	8173
3.70000	8138
3.70067	8103
3.70133	8069
3.70200	8035
3.70267	8002
3.70333	7969
3.70400	7937
3.70467	7906
3.70533	7875
3.70600	7844
3.70667	7814
3.70733	7784
3.70800	7755
3.70867	7727
3.70933	7699
3.71000	7671
3.71067	7644
3.71133	7617
3.71200	7590
3.71267	7565
3.71333	7539
3.71400	7514
3.71467	7489
3.71533	7465
3.71600	7441
3.71667	7418
3.71733	7395
3.71800	7372
3.71867	7349
3.71933	7327
3.72000	7306
3.72067	7284
3.72133	7263
3.72200	7243
3.72267	7222
3.72333	7202
3.72400	7182
3.72467	7163
3.72533	7144
3.72600	7125
3.72667	7107
3.72733	7088
3.72800	7070
3.72867	7053
3.72933	7035
3.73000	7018
3.73067	7001
3.73133	6985
3.73200	6968
3.73267	6952
3.73333	6936
3.73400	6921
3.73467	6905
3.73533	6890
3.73600	6875
3.73667	6860
3.73733	6846
3.73800	6831
3.73867	6817
3.73933	6803
3.74000	6789
3.74067	6776
3.74133	6762
3.74200	6749
3.74267	6736
3.74333	6723
3.74400	6710
3.74467	6698
3.74533	6686
3.74600	6673
3.74667	6661
3.74733	6649
3.74800	6638
3.74867	6626
3.74933	6615
3.75000	6603
3.75067	6592
3.75133	6581
3.75200	6570
3.75267	6560
3.75333	6549
3.75400	6538
3.75467	6528
3.75533	6518
3.75600	6507
3.75667	6497
3.75733	6487
3.75800	6477
3.75867	6467
3.75933	6458
3.76000	6448
3.76067	6439
3.76133	6429
3.76200	6420
3.76267	6411
3.76333	6402
3.76400	6393
3.76467	6384
3.76533	6375
3.76600	6367
3.76667	6358
3.76733	6350
3.76800	6342
3.76867	6333
3.76933	6325
3.77000	6317
3.77067	6309
3.77133	6301
3.77200	6293
3.77267	6285
3.77333	6278
3.77400	6270
3.77467	6262
3.77533	6255
3.77600	6248
3.77667	6240
3.77733	6233
3.77800	6226
3.77867	6219
3.77933	6212
3.78000	6205
3.78067	6198
3.78133	6191
3.78200	6185
3.78267	6178
3.78333	6172
3.78400	6165
3.78467	6159
3.78533	6152
3.78600	6146
3.78667	6139
3.78733	6133
3.78800	6127
3.78867	6121
3.78933	6115
3.79000	6109
3.79067	6103
3.79133	6097
3.79200	6091
3.79267	6085
3.79333	6079
3.79400	6073
3.79467	6067
3.79533	6061
3.79600	6056
3.79667	6050
3.79733	6044
3.79800	6039
3.79867	6033
3.79933	6028
3.80000	6022
3.80067	6017
3.80133	6011
3.80200	6006
3.80267	6001
3.80333	5995
3.80400	5990
3.80467	5985
3.80533	5980
3.80600	5975
3.80667	5970
3.80733	5965
3.80800	5959
3.80867	5955
3.80933	5950
3.81000	5945
3.81067	5940
3.81133	5935
3.81200	5931
3.81267	5926
3.81333	5921
3.81400	5917
3.81467	5912
3.81533	5907
3.81600	5903
3.81667	5899
3.81733	5894
3.81800	5890
3.81867	5885
3.81933	5881
3.82000	5877
3.82067	5872
3.82133	5868
3.82200	5864
3.82267	5860
3.82333	5856
3.82400	5852
3.82467	5848
3.82533	5844
3.82600	5840
3.82667	5836
3.82733	5832
3.82800	5828
3.82867	5824
3.82933	5820
3.83000	5816
3.83067	5812
3.83133	5809
3.83200	5805
3.83267	5801
3.83333	5798
3.83400	5794
3.83467	5790
3.83533	5787
3.83600	5783
3.83667	5780
3.83733	5777
3.83800	5773
3.83867	5770
3.83933	5767
3.84000	5763
3.84067	5760
3.84133	5757
3.84200	5753
3.84267	5750
3.84333	5747
3.84400	5744
3.84467	5740
3.84533	5737
3.84600	5734
3.84667	5731
3.84733	5728
3.84800	5725
3.84867	5722
3.84933	5719
3.85000	5715
3.85067	5712
3.85133	5709
3.85200	5706
3.85267	5703
3.85333	5701
3.85400	5698
3.85467	5695
3.85533	5692
3.85600	5689
3.85667	5686
3.85733	5683
3.85800	5680
3.85867	5677
3.85933	5675
3.86000	5672
3.86067	5669
3.86133	5667
3.86200	5664
3.86267	5661
3.86333	5659
3.86400	5656
3.86467	5653
3.86533	5651
3.86600	5648
3.86667	5645
3.86733	5643
3.86800	5640
3.86867	5637
3.86933	5635
3.87000	5632
3.87067	5630
3.87133	5627
3.87200	5625
3.87267	5623
3.87333	5620
3.87400	5618
3.87467	5616
3.87533	5613
3.87600	5611
3.87667	5609
3.87733	5606
3.87800	5604
3.87867	5602
3.87933	5600
3.88000	5598
3.88067	5596
3.88133	5593
3.88200	5591
3.88267	5589
3.88333	5587
3.88400	5585
3.88467	5583
3.88533	5580
3.88600	5578
3.88667	5576
3.88733	5574
3.88800	5572
3.88867	5570
3.88933	5568
3.89000	5566
3.89067	5564
3.89133	5562
3.89200	5560
3.89267	5558
3.89333	5556
3.89400	5554
3.89467	5552
3.89533	5550
3.89600	5548
3.89667	5546
3.89733	5544
3.89800	5542
3.89867	5541
3.89933	5539
3.90000	5537
3.90067	5535
3.90133	5534
3.90200	5532
3.90267	5530
3.90333	5528
3.90400	5527
3.90467	5525
3.90533	5523
3.90600	5522
3.90667	5520
3.90733	5518
3.90800	5517
3.90867	5515
3.90933	5513
3.91000	5512
3.91067	5510
3.91133	5508
3.91200	5507
3.91267	5505
3.91333	5503
3.91400	5502
3.91467	5500
3.91533	5499
3.91600	5497
3.91667	5495
3.91733	5494
3.91800	5492
3.91867	5491
3.91933	5489
3.92000	5488
3.92067	5486
3.92133	5484
3.92200	5483
3.92267	5481
3.92333	5479
3.92400	5478
3.92467	5476
3.92533	5474
3.92600	5472
3.92667	5471
3.92733	5469
3.92800	5467
3.92867	5466
3.92933	5464
3.93000	5462
3.93067	5460
3.93133	5459
3.93200	5457
3.93267	5455
3.93333	5454
3.93400	5452
3.93467	5450
3.93533	5448
3.93600	5447
3.93667	5445
3.93733	5443
3.93800	5441
3.93867	5440
3.93933	5438
3.94000	5436
3.94067	5435
3.94133	5433
3.94200	5431
3.94267	5430
3.94333	5428
3.94400	5426
3.94467	5425
3.94533	5423
3.94600	5421
3.94667	5420
3.94733	5418
3.94800	5417
3.94867	5415
3.94933	5414
3.95000	5412
3.95067	5411
3.95133	5410
3.95200	5408
3.95267	5407
3.95333	5406
3.95400	5404
3.95467	5403
3.95533	5402
3.95600	5401
3.95667	5399
3.95733	5398
3.95800	5397
3.95867	5396
3.95933	5395
3.96000	5394
3.96067	5393
3.96133	5392
3.96200	5391
3.96267	5390
3.96333	5389
3.96400	5388
3.96467	5387
3.96533	5386
3.96600	5385
3.96667	5384
3.96733	5383
3.96800	5382
3.96867	5381
3.96933	5380
3.97000	5379
3.97067	5379
3.97133	5378
3.97200	5377
3.97267	5376
3.97333	5375
3.97400	5374
3.97467	5374
3.97533	5373
3.97600	5372
3.97667	5372
3.97733	5371
3.97800	5370
3.97867	5370
3.97933	5369
3.98000	5368
3.98067	5368
3.98133	5367
3.98200	5367
3.98267	5366
3.98333	5366
3.98400	5365
3.98467	5365
3.98533	5365
3.98600	5364
3.98667	5364
3.98733	5364
3.98800	5363
3.98867	5363
3.98933	5363
3.99000	5362
3.99067	5362
3.99133	5362
3.99200	5361
3.99267	5361
3.99333	5361
3.99400	5361
3.99467	5361
3.99533	5361
3.99600	5361
3.99667	5361
3.99733	5361
3.99800	5361
3.99867	5361
3.99933	5361
4.00000	5361
4.00067	5361
4.00133	5362
4.00200	5362
4.00267	5362
4.00333	5363
4.00400	5363
4.00467	5364
4.00533	5364
4.00600	5365
4.00667	5365
4.00733	5366
4.00800	5366
4.00867	5367
4.00933	5368
4.01000	5368
4.01067	5369
4.01133	5370
4.01200	5371
4.01267	5372
4.01333	5372
4.01400	5373
4.01467	5375
4.01533	5376
4.01600	5377
4.01667	5378
4.01733	5379
4.01800	5380
4.01867	5382
4.01933	5383
4.02000	5385
4.02067	5386
4.02133	5388
4.02200	5389
4.02267	5391
4.02333	5393
4.02400	5394
4.02467	5396
4.02533	5398
4.02600	5400
4.02667	5402
4.02733	5404
4.02800	5406
4.02867	5409
4.02933	5411
4.03000	5413
4.03067	5416
4.03133	5418
4.03200	5421
4.03267	5423
4.03333	5426
4.03400	5429
4.03467	5432
4.03533	5435
4.03600	5437
4.03667	5440
4.03733	5444
4.03800	5447
4.03867	5450
4.03933	5453
4.04000	5456
4.04067	5460
4.04133	5463
4.04200	5467
4.04267	5470
4.04333	5474
4.04400	5478
4.04467	5482
4.04533	5486
4.04600	5489
4.04667	5493
4.04733	5497
4.04800	5501
4.04867	5506
4.04933	5510
4.05000	5514
4.05067	5518
4.05133	5523
4.05200	5527
4.05267	5531
4.05333	5536
4.05400	5541
4.05467	5545
4.05533	5550
4.05600	5555
4.05667	5559
4.05733	5564
4.05800	5569
4.05867	5574
4.05933	5579
4.06000	5583
4.06067	5588
4.06133	5593
4.06200	5598
4.06267	5603
4.06333	5608
4.06400	5613
4.06467	5618
4.06533	5623
4.06600	5628
4.06667	5633
4.06733	5638
4.06800	5643
4.06867	5648
4.06933	5653
4.07000	5658
4.07067	5663
4.07133	5668
4.07200	5673
4.07267	5678
4.07333	5682
4.07400	5687
4.07467	5692
4.07533	5697
4.07600	5701
4.07667	5706
4.07733	5711
4.07800	5715
4.07867	5720
4.07933	5725
4.08000	5729
4.08067	5734
4.08133	5738
4.08200	5742
4.08267	5747
4.08333	5751
4.08400	5756
4.08467	5760
4.08533	5764
4.08600	5769
4.08667	5773
4.08733	5777
4.08800	5781
4.08867	5786
4.08933	5790
4.09000	5794
4.09067	5798
4.09133	5802
4.09200	5806
4.09267	5810
4.09333	5814
4.09400	5818
4.09467	5822
4.09533	5826
4.09600	5829
4.09667	5833
4.09733	5837
4.09800	5841
4.09867	5844
4.09933	5848
4.10000	5852
4.10067	5855
4.10133	5859
4.10200	5862
4.10267	5866
4.10333	5870
4.10400	5873
4.10467	5877
4.10533	5880
4.10600	5884
4.10667	5888
4.10733	5891
4.10800	5895
4.10867	5899
4.10933	5903
4.11000	5907
4.11067	5911
4.11133	5914
4.11200	5918
4.11267	5922
4.11333	5926
4.11400	5930
4.11467	5934
4.11533	5938
4.11600	5942
4.11667	5946
4.11733	5950
4.11800	5954
4.11867	5958
4.11933	5962
4.12000	5966
4.12067	5970
4.12133	5975
4.12200	5979
4.12267	5983
4.12333	5987
4.12400	5991
4.12467	5996
4.12533	6000
4.12600	6005
4.12667	6009
4.12733	6014
4.12800	6018
4.12867	6023
4.12933	6028
4.13000	6032
4.13067	6037
4.13133	6042
4.13200	6047
4.13267	6053
4.13333	6058
4.13400	6064
4.13467	6069
4.13533	6075
4.13600	6081
4.13667	6087
4.13733	6094
4.13800	6100
4.13867	6107
4.13933	6114
4.14000	6121
4.14067	6128
4.14133	6136
4.14200	6143
4.14267	6151
4.14333	6159
4.14400	6167
4.14467	6175
4.14533	6183
4.14600	6192
4.14667	6201
4.14733	6210
4.14800	6219
4.14867	6228
4.14933	6238
4.15000	6248
4.15067	6258
4.15133	6268
4.15200	6278
4.15267	6289
4.15333	6300
4.15400	6311
4.15467	6323
4.15533	6334
4.15600	6346
4.15667	6359
4.15733	6372
4.15800	6385
4.15867	6398
4.15933	6412
4.16000	6426
4.16067	6440
4.16133	6455
4.16200	6470
4.16267	6485
4.16333	6501
4.16400	6517
4.16467	6533
4.16533	6550
4.16600	6567
4.16667	6585
4.16733	6603
4.16800	6621
4.16867	6639
4.16933	6658
4.17000	6678
4.17067	6698
4.17133	6718
4.17200	6738
4.17267	6760
4.17333	6781
4.17400	6803
4.17467	6826
4.17533	6849
4.17600	6872
4.17667	6896
4.17733	6921
4.17800	6946
4.17867	6972
4.17933	6998
4.18000	7024
4.18067	7051
4.18133	7079
4.18200	7108
4.18267	7137
4.18333	7166
4.18400	7197
4.18467	7228
4.18533	7259
4.18600	7292
4.18667	7324
4.18733	7358
4.18800	7392
4.18867	7427
4.18933	7463
4.19000	7499
4.19067	7536
4.19133	7574
4.19200	7612
4.19267	7651
4.19333	7691
4.19400	7732
4.19467	7774
4.19533	7817
4.19600	7860
4.19667	7904
4.19733	7950
4.19800	7996
4.19867	8043
4.19933	8091
4.20000	8140
4.20067	8190
4.20133	8241
4.20200	8292
4.20267	8345
4.20333	8399
4.20400	8454
4.20467	8509
4.20533	8566
4.20600	8623
4.20667	8682
4.20733	8742
4.20800	8803
4.20867	8865
4.20933	8928
4.21000	8993
4.21067	9058
4.21133	9125
4.21200	9194
4.21267	9263
4.21333	9334
4.21400	9407
4.21467	9481
4.21533	9556
4.21600	9633
4.21667	9712
4.21733	9793
4.21800	9874
4.21867	9958
4.21933	10044
4.22000	10131
4.22067	10220
4.22133	10311
4.22200	10404
4.22267	10498
4.22333	10595
4.22400	10693
4.22467	10793
4.22533	10896
4.22600	11000
4.22667	11106
4.22733	11215
4.22800	11325
4.22867	11438
4.22933	11553
4.23000	11670
4.23067	11789
4.23133	11911
4.23200	12036
4.23267	12162
4.23333	12291
4.23400	12423
4.23467	12557
4.23533	12694
4.23600	12833
4.23667	12975
4.23733	13120
4.23800	13267
4.23867	13418
4.23933	13570
4.24000	13726
4.24067	13884
4.24133	14045
4.24200	14208
4.24267	14375
4.24333	14544
4.24400	14716
4.24467	14891
4.24533	15068
4.24600	15249
4.24667	15432
4.24733	15618
4.24800	15807
4.24867	15999
4.24933	16193
4.25000	16391
4.25067	16592
4.25133	16795
4.25200	17002
4.25267	17212
4.25333	17424
4.25400	17640
4.25467	17858
4.25533	18079
4.25600	18304
4.25667	18531
4.25733	18761
4.25800	18993
4.25867	19228
4.25933	19466
4.26000	19706
4.26067	19949
4.26133	20194
4.26200	20441
4.26267	20691
4.26333	20943
4.26400	21197
4.26467	21453
4.26533	21711
4.26600	21971
4.26667	22232
4.26733	22496
4.26800	22761
4.26867	23027
4.26933	23295
4.27000	23564
4.27067	23835
4.27133	24107
4.27200	24379
4.27267	24654
4.27333	24929
4.27400	25205
4.27467	25483
4.27533	25761
4.27600	26041
4.27667	26321
4.27733	26602
4.27800	26884
4.27867	27167
4.27933	27450
4.28000	27734
4.28067	28018
4.28133	28302
4.28200	28587
4.28267	28872
4.28333	29156
4.28400	29441
4.28467	29725
4.28533	30009
4.28600	30293
4.28667	30576
4.28733	30859
4.28800	31141
4.28867	31422
4.28933	31702
4.29000	31981
4.29067	32259
4.29133	32536
4.29200	32811
4.29267	33085
4.29333	33357
4.29400	33627
4.29467	33896
4.29533	34163
4.29600	34428
4.29667	34691
4.29733	34952
4.29800	35211
4.29867	35468
4.29933	35724
4.30000	35977
4.30067	36228
4.30133	36476
4.30200	36723
4.30267	36967
4.30333	37209
4.30400	37448
4.30467	37685
4.30533	37919
4.30600	38151
4.30667	38381
4.30733	38608
4.30800	38832
4.30867	39053
4.30933	39272
4.31000	39488
4.31067	39700
4.31133	39910
4.31200	40117
4.31267	40321
4.31333	40522
4.31400	40719
4.31467	40914
4.31533	41105
4.31600	41293
4.31667	41479
4.31733	41660
4.31800	41839
4.31867	42014
4.31933	42186
4.32000	42355
4.32067	42520
4.32133	42681
4.32200	42839
4.32267	42993
4.32333	43143
4.32400	43289
4.32467	43431
4.32533	43570
4.32600	43704
4.32667	43834
4.32733	43959
4.32800	44080
4.32867	44196
4.32933	44307
4.33000	44414
4.33067	44515
4.33133	44612
4.33200	44704
4.33267	44791
4.33333	44874
4.33400	44952
4.33467	45025
4.33533	45093
4.33600	45156
4.33667	45214
4.33733	45267
4.33800	45314
4.33867	45356
4.33933	45392
4.34000	45423
4.34067	45449
4.34133	45469
4.34200	45483
4.34267	45492
4.34333	45495
4.34400	45493
4.34467	45485
4.34533	45472
4.34600	45454
4.34667	45430
4.34733	45401
4.34800	45366
4.34867	45326
4.34933	45280
4.35000	45228
4.35067	45171
4.35133	45109
4.35200	45041
4.35267	44967
4.35333	44888
4.35400	44804
4.35467	44714
4.35533	44618
4.35600	44518
4.35667	44412
4.35733	44300
4.35800	44184
4.35867	44063
4.35933	43936
4.36000	43805
4.36067	43669
4.36133	43528
4.36200	43383
4.36267	43233
4.36333	43079
4.36400	42921
4.36467	42759
4.36533	42593
4.36600	42423
4.36667	42249
4.36733	42072
4.36800	41892
4.36867	41708
4.36933	41521
4.37000	41331
4.37067	41138
4.37133	40942
4.37200	40744
4.37267	40543
4.37333	40340
4.37400	40134
4.37467	39926
4.37533	39716
4.37600	39504
4.37667	39290
4.37733	39075
4.37800	38858
4.37867	38639
4.37933	38419
4.38000	38198
4.38067	37976
4.38133	37753
4.38200	37529
4.38267	37304
4.38333	37078
4.38400	36852
4.38467	36626
4.38533	36399
4.38600	36172
4.38667	35945
4.38733	35718
4.38800	35491
4.38867	35264
4.38933	35038
4.39000	34813
4.39067	34588
4.39133	34363
4.39200	34140
4.39267	33918
4.39333	33697
4.39400	33478
4.39467	33259
4.39533	33043
4.39600	32828
4.39667	32615
4.39733	32403
4.39800	32193
4.39867	31986
4.39933	31780
4.40000	31577
4.40067	31375
4.40133	31176
4.40200	30979
4.40267	30784
4.40333	30592
4.40400	30402
4.40467	30215
4.40533	30030
4.40600	29848
4.40667	29669
4.40733	29492
4.40800	29319
4.40867	29148
4.40933	28980
4.41000	28815
4.41067	28653
4.41133	28493
4.41200	28337
4.41267	28184
4.41333	28034
4.41400	27887
4.41467	27743
4.41533	27602
4.41600	27464
4.41667	27329
4.41733	27197
4.41800	27068
4.41867	26942
4.41933	26819
4.42000	26698
4.42067	26580
4.42133	26465
4.42200	26353
4.42267	26243
4.42333	26136
4.42400	26031
4.42467	25929
4.42533	25829
4.42600	25731
4.42667	25637
4.42733	25544
4.42800	25454
4.42867	25366
4.42933	25281
4.43000	25198
4.43067	25116
4.43133	25037
4.43200	24960
4.43267	24884
4.43333	24810
4.43400	24738
4.43467	24667
4.43533	24598
4.43600	24530
4.43667	24464
4.43733	24399
4.43800	24335
4.43867	24272
4.43933	24210
4.44000	24150
4.44067	24090
4.44133	24032
4.44200	23974
4.44267	23917
4.44333	23861
4.44400	23806
4.44467	23752
4.44533	23698
4.44600	23645
4.44667	23592
4.44733	23540
4.44800	23489
4.44867	23438
4.44933	23387
4.45000	23337
4.45067	23287
4.45133	23237
4.45200	23188
4.45267	23138
4.45333	23089
4.45400	23040
4.45467	22990
4.45533	22941
4.45600	22891
4.45667	22841
4.45733	22791
4.45800	22740
4.45867	22688
4.45933	22637
4.46000	22584
4.46067	22531
4.46133	22478
4.46200	22423
4.46267	22368
4.46333	22313
4.46400	22256
4.46467	22200
4.46533	22142
4.46600	22084
4.46667	22025
4.46733	21965
4.46800	21905
4.46867	21844
4.46933	21782
4.47000	21720
4.47067	21656
4.47133	21592
4.47200	21527
4.47267	21461
4.47333	21394
4.47400	21327
4.47467	21258
4.47533	21189
4.47600	21119
4.47667	21048
4.47733	20976
4.47800	20903
4.47867	20830
4.47933	20756
4.48000	20680
4.48067	20605
4.48133	20528
4.48200	20451
4.48267	20373
4.48333	20295
4.48400	20216
4.48467	20136
4.48533	20057
4.48600	19976
4.48667	19895
4.48733	19814
4.48800	19733
4.48867	19651
4.48933	19569
4.49000	19486
4.49067	19403
4.49133	19321
4.49200	19238
4.49267	19154
4.49333	19071
4.49400	18987
4.49467	18904
4.49533	18820
4.49600	18736
4.49667	18652
4.49733	18568
4.49800	18484
4.49867	18401
4.49933	18317
4.50000	18234
4.50067	18150
4.50133	18067
4.50200	17985
4.50267	17902
4.50333	17820
4.50400	17738
4.50467	17657
4.50533	17577
4.50600	17496
4.50667	17417
4.50733	17338
4.50800	17260
4.50867	17182
4.50933	17106
4.51000	17029
4.51067	16954
4.51133	16880
4.51200	16806
4.51267	16733
4.51333	16662
4.51400	16591
4.51467	16521
4.51533	16452
4.51600	16384
4.51667	16318
4.51733	16252
4.51800	16188
4.51867	16124
4.51933	16062
4.52000	16001
4.52067	15941
4.52133	15883
4.52200	15826
4.52267	15770
4.52333	15715
4.52400	15662
4.52467	15611
4.52533	15561
4.52600	15512
4.52667	15465
4.52733	15419
4.52800	15376
4.52867	15333
4.52933	15293
4.53000	15254
4.53067	15217
4.53133	15182
4.53200	15148
4.53267	15116
4.53333	15087
4.53400	15058
4.53467	15032
4.53533	15008
4.53600	14985
4.53667	14964
4.53733	14945
4.53800	14928
4.53867	14913
4.53933	14900
4.54000	14889
4.54067	14880
4.54133	14873
4.54200	14868
4.54267	14864
4.54333	14863
4.54400	14864
4.54467	14867
4.54533	14871
4.54600	14878
4.54667	14887
4.54733	14897
4.54800	14910
4.54867	14925
4.54933	14941
4.55000	14960
4.55067	14980
4.55133	15003
4.55200	15027
4.55267	15053
4.55333	15082
4.55400	15112
4.55467	15144
4.55533	15178
4.55600	15214
4.55667	15251
4.55733	15291
4.55800	15332
4.55867	15375
4.55933	15420
4.56000	15467
4.56067	15515
4.56133	15565
4.56200	15617
4.56267	15671
4.56333	15726
4.56400	15782
4.56467	15841
4.56533	15900
4.56600	15962
4.56667	16024
4.56733	16089
4.56800	16154
4.56867	16221
4.56933	16290
4.57000	16359
4.57067	16430
4.57133	16503
4.57200	16576
4.57267	16651
4.57333	16726
4.57400	16803
4.57467	16880
4.57533	16959
4.57600	17038
4.57667	17117
4.57733	17198
4.57800	17279
4.57867	17361
4.57933	17442
4.58000	17525
4.58067	17607
4.58133	17690
4.58200	17773
4.58267	17856
4.58333	17938
4.58400	18021
4.58467	18104
4.58533	18186
4.58600	18268
4.58667	18350
4.58733	18431
4.58800	18512
4.58867	18591
4.58933	18671
4.59000	18749
4.59067	18827
4.59133	18903
4.59200	18979
4.59267	19054
4.59333	19128
4.59400	19200
4.59467	19272
4.59533	19342
4.59600	19412
4.59667	19480
4.59733	19547
4.59800	19613
4.59867	19677
4.59933	19740
4.60000	19802
4.60067	19863
4.60133	19922
4.60200	19979
4.60267	20036
4.60333	20090
4.60400	20143
4.60467	20195
4.60533	20245
4.60600	20293
4.60667	20339
4.60733	20384
4.60800	20427
4.60867	20468
4.60933	20507
4.61000	20544
4.61067	20579
4.61133	20613
4.61200	20644
4.61267	20673
4.61333	20700
4.61400	20726
4.61467	20749
4.61533	20770
4.61600	20789
4.61667	20807
4.61733	20822
4.61800	20835
4.61867	20847
4.61933	20856
4.62000	20863
4.62067	20869
4.62133	20873
4.62200	20874
4.62267	20874
4.62333	20872
4.62400	20869
4.62467	20863
4.62533	20856
4.62600	20847
4.62667	20836
4.62733	20823
4.62800	20809
4.62867	20793
4.62933	20775
4.63000	20755
4.63067	20734
4.63133	20711
4.63200	20687
4.63267	20661
4.63333	20633
4.63400	20604
4.63467	20573
4.63533	20541
4.63600	20508
4.63667	20473
4.63733	20437
4.63800	20400
4.63867	20361
4.63933	20321
4.64000	20280
4.64067	20238
4.64133	20194
4.64200	20149
4.64267	20104
4.64333	20057
4.64400	20009
4.64467	19960
4.64533	19910
4.64600	19860
4.64667	19808
4.64733	19756
4.64800	19702
4.64867	19648
4.64933	19594
4.65000	19538
4.65067	19482
4.65133	19425
4.65200	19368
4.65267	19310
4.65333	19252
4.65400	19193
4.65467	19133
4.65533	19073
4.65600	19013
4.65667	18952
4.65733	18891
4.65800	18829
4.65867	18767
4.65933	18705
4.66000	18643
4.66067	18581
4.66133	18518
4.66200	18456
4.66267	18393
4.66333	18331
4.66400	18269
4.66467	18207
4.66533	18144
4.66600	18083
4.66667	18021
4.66733	17959
4.66800	17898
4.66867	17836
4.66933	17775
4.67000	17714
4.67067	17653
4.67133	17593
4.67200	17532
4.67267	17472
4.67333	17412
4.67400	17352
4.67467	17293
4.67533	17233
4.67600	17174
4.67667	17116
4.67733	17057
4.67800	16999
4.67867	16941
4.67933	16884
4.68000	16827
4.68067	16770
4.68133	16714
4.68200	16658
4.68267	16603
4.68333	16548
4.68400	16493
4.68467	16439
4.68533	16385
4.68600	16332
4.68667	16279
4.68733	16226
4.68800	16174
4.68867	16123
4.68933	16072
4.69000	16021
4.69067	15971
4.69133	15921
4.69200	15872
4.69267	15824
4.69333	15775
4.69400	15728
4.69467	15681
4.69533	15634
4.69600	15588
4.69667	15542
4.69733	15497
4.69800	15453
4.69867	15409
4.69933	15365
4.70000	15322
4.70067	15280
4.70133	15238
4.70200	15196
4.70267	15155
4.70333	15114
4.70400	15074
4.70467	15034
4.70533	14995
4.70600	14956
4.70667	14917
4.70733	14879
4.70800	14841
4.70867	14804
4.70933	14766
4.71000	14730
4.71067	14693
4.71133	14657
4.71200	14621
4.71267	14586
4.71333	14551
4.71400	14516
4.71467	14482
4.71533	14448
4.71600	14414
4.71667	14381
4.71733	14348
4.71800	14315
4.71867	14282
4.71933	14250
4.72000	14218
4.72067	14187
4.72133	14156
4.72200	14125
4.72267	14095
4.72333	14065
4.72400	14035
4.72467	14005
4.72533	13976
4.72600	13947
4.72667	13919
4.72733	13890
4.72800	13862
4.72867	13834
4.72933	13807
4.73000	13779
4.73067	13752
4.73133	13725
4.73200	13699
4.73267	13673
4.73333	13647
4.73400	13621
4.73467	13595
4.73533	13570
4.73600	13545
4.73667	13520
4.73733	13496
4.73800	13472
4.73867	13448
4.73933	13424
4.74000	13401
4.74067	13378
4.74133	13355
4.74200	13332
4.74267	13309
4.74333	13287
4.74400	13265
4.74467	13243
4.74533	13221
4.74600	13199
4.74667	13177
4.74733	13156
4.74800	13134
4.74867	13113
4.74933	13092
4.75000	13072
4.75067	13051
4.75133	13031
4.75200	13010
4.75267	12990
4.75333	12971
4.75400	12951
4.75467	12932
4.75533	12913
4.75600	12894
4.75667	12875
4.75733	12856
4.75800	12837
4.75867	12819
4.75933	12800
4.76000	12782
4.76067	12764
4.76133	12746
4.76200	12728
4.76267	12711
4.76333	12693
4.76400	12675
4.76467	12658
4.76533	12641
4.76600	12624
4.76667	12607
4.76733	12590
4.76800	12573
4.76867	12557
4.76933	12541
4.77000	12524
4.77067	12508
4.77133	12492
4.77200	12476
4.77267	12460
4.77333	12445
4.77400	12429
4.77467	12414
4.77533	12398
4.77600	12383
4.77667	12368
4.77733	12352
4.77800	12337
4.77867	12322
4.77933	12307
4.78000	12292
4.78067	12278
4.78133	12263
4.78200	12248
4.78267	12234
4.78333	12219
4.78400	12205
4.78467	12191
4.78533	12177
4.78600	12163
4.78667	12149
4.78733	12135
4.78800	12122
4.78867	12108
4.78933	12095
4.79000	12082
4.79067	12068
4.79133	12055
4.79200	12043
4.79267	12030
4.79333	12017
4.79400	12005
4.79467	11992
4.79533	11980
4.79600	11968
4.79667	11956
4.79733	11944
4.79800	11932
4.79867	11920
4.79933	11908
4.80000	11897
4.80067	11886
4.80133	11874
4.80200	11863
4.80267	11853
4.80333	11842
4.80400	11831
4.80467	11821
4.80533	11810
4.80600	11800
4.80667	11789
4.80733	11779
4.80800	11769
4.80867	11759
4.80933	11749
4.81000	11739
4.81067	11729
4.81133	11719
4.81200	11710
4.81267	11700
4.81333	11690
4.81400	11681
4.81467	11671
4.81533	11661
4.81600	11652
4.81667	11642
4.81733	11633
4.81800	11623
4.81867	11614
4.81933	11604
4.82000	11595
4.82067	11586
4.82133	11576
4.82200	11567
4.82267	11557
4.82333	11548
4.82400	11539
4.82467	11529
4.82533	11520
4.82600	11510
4.82667	11501
4.82733	11491
4.82800	11481
4.82867	11472
4.82933	11462
4.83000	11453
4.83067	11443
4.83133	11433
4.83200	11424
4.83267	11414
4.83333	11405
4.83400	11395
4.83467	11386
4.83533	11376
4.83600	11367
4.83667	11357
4.83733	11348
4.83800	11339
4.83867	11330
4.83933	11321
4.84000	11311
4.84067	11302
4.84133	11293
4.84200	11284
4.84267	11276
4.84333	11267
4.84400	11258
4.84467	11249
4.84533	11240
4.84600	11231
4.84667	11222
4.84733	11213
4.84800	11204
4.84867	11196
4.84933	11187
4.85000	11178
4.85067	11169
4.85133	11160
4.85200	11151
4.85267	11141
4.85333	11132
4.85400	11123
4.85467	11114
4.85533	11105
4.85600	11096
4.85667	11087
4.85733	11079
4.85800	11070
4.85867	11061
4.85933	11052
4.86000	11044
4.86067	11035
4.86133	11026
4.86200	11018
4.86267	11009
4.86333	11001
4.86400	10992
4.86467	10984
4.86533	10975
4.86600	10967
4.86667	10959
4.86733	10951
4.86800	10943
4.86867	10935
4.86933	10927
4.87000	10919
4.87067	10911
4.87133	10903
4.87200	10896
4.87267	10888
4.87333	10881
4.87400	10873
4.87467	10866
4.87533	10858
4.87600	10851
4.87667	10844
4.87733	10836
4.87800	10829
4.87867	10821
4.87933	10814
4.88000	10807
4.88067	10799
4.88133	10792
4.88200	10785
4.88267	10778
4.88333	10770
4.88400	10763
4.88467	10756
4.88533	10749
4.88600	10742
4.88667	10735
4.88733	10727
4.88800	10720
4.88867	10713
4.88933	10706
4.89000	10699
4.89067	10692
4.89133	10684
4.89200	10677
4.89267	10670
4.89333	10663
4.89400	10656
4.89467	10649
4.89533	10642
4.89600	10635
4.89667	10628
4.89733	10621
4.89800	10614
4.89867	10607
4.89933	10600
4.90000	10593
4.90067	10587
4.90133	10580
4.90200	10573
4.90267	10566
4.90333	10559
4.90400	10552
4.90467	10546
4.90533	10539
4.90600	10532
4.90667	10525
4.90733	10518
4.90800	10512
4.90867	10505
4.90933	10498
4.91000	10491
4.91067	10484
4.91133	10477
4.91200	10470
4.91267	10463
4.91333	10456
4.91400	10449
4.91467	10442
4.91533	10435
4.91600	10428
4.91667	10421
4.91733	10415
4.91800	10408
4.91867	10401
4.91933	10394
4.92000	10387
4.92067	10381
4.92133	10374
4.92200	10367
4.92267	10361
4.92333	10354
4.92400	10347
4.92467	10341
4.92533	10334
4.92600	10328
4.92667	10321
4.92733	10314
4.92800	10308
4.92867	10301
4.92933	10295
4.93000	10288
4.93067	10282
4.93133	10275
4.93200	10269
4.93267	10262
4.93333	10256
4.93400	10250
4.93467	10243
4.93533	10237
4.93600	10231
4.93667	10225
4.93733	10219
4.93800	10213
4.93867	10207
4.93933	10201
4.94000	10195
4.94067	10189
4.94133	10183
4.94200	10177
4.94267	10172
4.94333	10166
4.94400	10160
4.94467	10154
4.94533	10148
4.94600	10143
4.94667	10137
4.94733	10131
4.94800	10125
4.94867	10120
4.94933	10114
4.95000	10109
4.95067	10103
4.95133	10098
4.95200	10093
4.95267	10087
4.95333	10082
4.95400	10077
4.95467	10072
4.95533	10067
4.95600	10062
4.95667	10057
4.95733	10052
4.95800	10047
4.95867	10042
4.95933	10037
4.96000	10031
4.96067	10026
4.96133	10021
4.96200	10016
4.96267	10010
4.96333	10005
4.96400	9999
4.96467	9994
4.96533	9989
4.96600	9983
4.96667	9978
4.96733	9972
4.96800	9967
4.96867	9961
4.96933	9956
4.97000	9950
4.97067	9945
4.97133	9940
4.97200	9934
4.97267	9929
4.97333	9924
4.97400	9919
4.97467	9913
4.97533	9908
4.97600	9903
4.97667	9898
4.97733	9892
4.97800	9887
4.97867	9882
4.97933	9877
4.98000	9872
4.98067	9867
4.98133	9861
4.98200	9856
4.98267	9851
4.98333	9846
4.98400	9841
4.98467	9836
4.98533	9831
4.98600	9826
4.98667	9822
4.98733	9817
4.98800	9812
4.98867	9807
4.98933	9802
4.99000	9797
4.99067	9792
4.99133	9787
4.99200	9782
4.99267	9777
4.99333	9772
4.99400	9767
4.99467	9762
4.99533	9758
4.99600	9753
4.99667	9748
4.99733	9744
4.99800	9739
4.99867	9735
4.99933	9730
5.00000	9726
5.00067	9722
5.00133	9717
5.00200	9713
5.00267	9709
5.00333	9704
5.00400	9700
5.00467	9696
5.00533	9691
5.00600	9687
5.00667	9682
5.00733	9678
5.00800	9674
5.00867	9669
5.00933	9665
5.01000	9660
5.01067	9656
5.01133	9651
5.01200	9647
5.01267	9642
5.01333	9638
5.01400	9633
5.01467	9629
5.01533	9624
5.01600	9620
5.01667	9615
5.01733	9610
5.01800	9606
5.01867	9601
5.01933	9597
5.02000	9592
5.02067	9587
5.02133	9583
5.02200	9578
5.02267	9573
5.02333	9569
5.02400	9564
5.02467	9559
5.02533	9555
5.02600	9550
5.02667	9545
5.02733	9541
5.02800	9536
5.02867	9531
5.02933	9527
5.03000	9522
5.03067	9517
5.03133	9512
5.03200	9508
5.03267	9503
5.03333	9498
5.03400	9493
5.03467	9488
5.03533	9483
5.03600	9478
5.03667	9474
5.03733	9469
5.03800	9464
5.03867	9459
5.03933	9454
5.04000	9449
5.04067	9444
5.04133	9439
5.04200	9434
5.04267	9429
5.04333	9424
5.04400	9419
5.04467	9414
5.04533	9410
5.04600	9405
5.04667	9400
5.04733	9395
5.04800	9390
5.04867	9385
5.04933	9380
5.05000	9375
5.05067	9371
5.05133	9366
5.05200	9361
5.05267	9356
5.05333	9351
5.05400	9346
5.05467	9342
5.05533	9337
5.05600	9332
5.05667	9327
5.05733	9322
5.05800	9318
5.05867	9313
5.05933	9308
5.06000	9303
5.06067	9299
5.06133	9294
5.06200	9289
5.06267	9285
5.06333	9280
5.06400	9275
5.06467	9271
5.06533	9266
5.06600	9262
5.06667	9257
5.06733	9253
5.06800	9248
5.06867	9244
5.06933	9240
5.07000	9235
5.07067	9231
5.07133	9227
5.07200	9223
5.07267	9218
5.07333	9214
5.07400	9210
5.07467	9206
5.07533	9202
5.07600	9198
5.07667	9194
5.07733	9190
5.07800	9186
5.07867	9182
5.07933	9178
5.08000	9174
5.08067	9170
5.08133	9166
5.08200	9162
5.08267	9158
5.08333	9154
5.08400	9151
5.08467	9147
5.08533	9143
5.08600	9140
5.08667	9136
5.08733	9133
5.08800	9129
5.08867	9126
5.08933	9123
5.09000	9120
5.09067	9117
5.09133	9114
5.09200	9111
5.09267	9109
5.09333	9106
5.09400	9104
5.09467	9101
5.09533	9099
5.09600	9097
5.09667	9095
5.09733	9093
5.09800	9091
5.09867	9089
5.09933	9088
5.10000	9086
5.10067	9085
5.10133	9084
5.10200	9083
5.10267	9082
5.10333	9081
5.10400	9081
5.10467	9081
5.10533	9081
5.10600	9081
5.10667	9081
5.10733	9082
5.10800	9083
5.10867	9084
5.10933	9086
5.11000	9088
5.11067	9090
5.11133	9092
5.11200	9095
5.11267	9098
5.11333	9102
5.11400	9106
5.11467	9110
5.11533	9114
5.11600	9119
5.11667	9125
5.11733	9130
5.11800	9137
5.11867	9143
5.11933	9151
5.12000	9158
5.12067	9166
5.12133	9175
5.12200	9184
5.12267	9194
5.12333	9204
5.12400	9215
5.12467	9227
5.12533	9239
5.12600	9251
5.12667	9265
5.12733	9279
5.12800	9293
5.12867	9309
5.12933	9325
5.13000	9342
5.13067	9360
5.13133	9379
5.13200	9398
5.13267	9419
5.13333	9440
5.13400	9463
5.13467	9486
5.13533	9510
5.13600	9536
5.13667	9562
5.13733	9589
5.13800	9618
5.13867	9647
5.13933	9678
5.14000	9709
5.14067	9742
5.14133	9776
5.14200	9811
5.14267	9848
5.14333	9885
5.14400	9924
5.14467	9964
5.14533	10005
5.14600	10048
5.14667	10092
5.14733	10137
5.14800	10184
5.14867	10233
5.14933	10282
5.15000	10334
5.15067	10387
5.15133	10441
5.15200	10497
5.15267	10555
5.15333	10614
5.15400	10675
5.15467	10737
5.15533	10801
5.15600	10867
5.15667	10934
5.15733	11004
5.15800	11074
5.15867	11147
5.15933	11221
5.16000	11297
5.16067	11374
5.16133	11453
5.16200	11534
5.16267	11616
5.16333	11701
5.16400	11787
5.16467	11874
5.16533	11964
5.16600	12055
5.16667	12148
5.16733	12243
5.16800	12339
5.16867	12437
5.16933	12537
5.17000	12639
5.17067	12743
5.17133	12848
5.17200	12955
5.17267	13063
5.17333	13173
5.17400	13285
5.17467	13399
5.17533	13513
5.17600	13630
5.17667	13748
5.17733	13868
5.17800	13989
5.17867	14112
5.17933	14236
5.18000	14362
5.18067	14489
5.18133	14618
5.18200	14748
5.18267	14880
5.18333	15013
5.18400	15148
5.18467	15284
5.18533	15421
5.18600	15559
5.18667	15698
5.18733	15838
5.18800	15980
5.18867	16122
5.18933	16264
5.19000	16408
5.19067	16552
5.19133	16697
5.19200	16842
5.19267	16987
5.19333	17134
5.19400	17280
5.19467	17427
5.19533	17574
5.19600	17721
5.19667	17868
5.19733	18015
5.19800	18163
5.19867	18310
5.19933	18458
5.20000	18605
5.20067	18753
5.20133	18900
5.20200	19046
5.20267	19192
5.20333	19338
5.20400	19483
5.20467	19628
5.20533	19772
5.20600	19915
5.20667	20058
5.20733	20200
5.20800	20341
5.20867	20481
5.20933	20620
5.21000	20758
5.21067	20894
5.21133	21030
5.21200	21164
5.21267	21297
5.21333	21428
5.21400	21558
5.21467	21686
5.21533	21812
5.21600	21937
5.21667	22059
5.21733	22180
5.21800	22298
5.21867	22415
5.21933	22529
5.22000	22641
5.22067	22751
5.22133	22858
5.22200	22963
5.22267	23065
5.22333	23165
5.22400	23262
5.22467	23357
5.22533	23449
5.22600	23538
5.22667	23625
5.22733	23709
5.22800	23790
5.22867	23868
5.22933	23943
5.23000	24015
5.23067	24084
5.23133	24150
5.23200	24213
5.23267	24273
5.23333	24330
5.23400	24383
5.23467	24434
5.23533	24481
5.23600	24525
5.23667	24566
5.23733	24603
5.23800	24638
5.23867	24669
5.23933	24697
5.24000	24722
5.24067	24744
5.24133	24762
5.24200	24778
5.24267	24790
5.24333	24799
5.24400	24806
5.24467	24809
5.24533	24809
5.24600	24806
5.24667	24800
5.24733	24791
5.24800	24779
5.24867	24764
5.24933	24747
5.25000	24726
5.25067	24703
5.25133	24677
5.25200	24648
5.25267	24617
5.25333	24583
5.25400	24546
5.25467	24507
5.25533	24465
5.25600	24420
5.25667	24373
5.25733	24324
5.25800	24272
5.25867	24218
5.25933	24161
5.26000	24103
5.26067	24042
5.26133	23979
5.26200	23914
5.26267	23846
5.26333	23777
5.26400	23706
5.26467	23633
5.26533	23558
5.26600	23482
5.26667	23403
5.26733	23323
5.26800	23242
5.26867	23159
5.26933	23075
5.27000	22989
5.27067	22902
5.27133	22814
5.27200	22724
5.27267	22633
5.27333	22541
5.27400	22448
5.27467	22354
5.27533	22259
5.27600	22163
5.27667	22066
5.27733	21968
5.27800	21869
5.27867	21770
5.27933	21670
5.28000	21569
5.28067	21467
5.28133	21366
5.28200	21263
5.28267	21161
5.28333	21058
5.28400	20955
5.28467	20852
5.28533	20748
5.28600	20645
5.28667	20541
5.28733	20437
5.28800	20334
5.28867	20230
5.28933	20127
5.29000	20024
5.29067	19921
5.29133	19818
5.29200	19715
5.29267	19613
5.29333	19511
5.29400	19409
5.29467	19308
5.29533	19207
5.29600	19107
5.29667	19007
5.29733	18908
5.29800	18809
5.29867	18710
5.29933	18613
5.30000	18515
5.30067	18418
5.30133	18322
5.30200	18227
5.30267	18132
5.30333	18037
5.30400	17944
5.30467	17851
5.30533	17758
5.30600	17667
5.30667	17576
5.30733	17486
5.30800	17397
5.30867	17309
5.30933	17221
5.31000	17134
5.31067	17048
5.31133	16963
5.31200	16878
5.31267	16795
5.31333	16712
5.31400	16630
5.31467	16548
5.31533	16468
5.31600	16388
5.31667	16309
5.31733	16231
5.31800	16153
5.31867	16077
5.31933	16001
5.32000	15926
5.32067	15852
5.32133	15778
5.32200	15706
5.32267	15634
5.32333	15563
5.32400	15492
5.32467	15423
5.32533	15354
5.32600	15286
5.32667	15219
5.32733	15152
5.32800	15087
5.32867	15022
5.32933	14958
5.33000	14894
5.33067	14832
5.33133	14769
5.33200	14708
5.33267	14648
5.33333	14588
5.33400	14528
5.33467	14470
5.33533	14412
5.33600	14355
5.33667	14298
5.33733	14243
5.33800	14188
5.33867	14133
5.33933	14080
5.34000	14026
5.34067	13974
5.34133	13922
5.34200	13871
5.34267	13821
5.34333	13771
5.34400	13721
5.34467	13673
5.34533	13625
5.34600	13577
5.34667	13530
5.34733	13484
5.34800	13438
5.34867	13393
5.34933	13348
5.35000	13304
5.35067	13260
5.35133	13217
5.35200	13174
5.35267	13132
5.35333	13090
5.35400	13049
5.35467	13008
5.35533	12968
5.35600	12928
5.35667	12888
5.35733	12849
5.35800	12810
5.35867	12772
5.35933	12734
5.36000	12697
5.36067	12660
5.36133	12623
5.36200	12587
5.36267	12551
5.36333	12516
5.36400	12481
5.36467	12446
5.36533	12412
5.36600	12378
5.36667	12345
5.36733	12311
5.36800	12279
5.36867	12246
5.36933	12214
5.37000	12182
5.37067	12150
5.37133	12119
5.37200	12088
5.37267	12057
5.37333	12027
5.37400	11997
5.37467	11967
5.37533	11938
5.37600	11909
5.37667	11880
5.37733	11851
5.37800	11823
5.37867	11795
5.37933	11767
5.38000	11740
5.38067	11713
5.38133	11686
5.38200	11659
5.38267	11633
5.38333	11606
5.38400	11580
5.38467	11555
5.38533	11529
5.38600	11504
5.38667	11479
5.38733	11455
5.38800	11430
5.38867	11406
5.38933	11382
5.39000	11359
5.39067	11335
5.39133	11312
5.39200	11289
5.39267	11266
5.39333	11244
5.39400	11221
5.39467	11199
5.39533	11178
5.39600	11156
5.39667	11135
5.39733	11114
5.39800	11093
5.39867	11072
5.39933	11052
5.40000	11032
5.40067	11012
5.40133	10992
5.40200	10973
5.40267	10953
5.40333	10934
5.40400	10915
5.40467	10896
5.40533	10877
5.40600	10859
5.40667	10840
5.40733	10822
5.40800	10804
5.40867	10786
5.40933	10768
5.41000	10751
5.41067	10733
5.41133	10716
5.41200	10699
5.41267	10682
5.41333	10665
5.41400	10648
5.41467	10632
5.41533	10615
5.41600	10599
5.41667	10583
5.41733	10567
5.41800	10551
5.41867	10535
5.41933	10519
5.42000	10504
5.42067	10488
5.42133	10472
5.42200	10457
5.42267	10442
5.42333	10426
5.42400	10411
5.42467	10396
5.42533	10381
5.42600	10366
5.42667	10352
5.42733	10337
5.42800	10323
5.42867	10308
5.42933	10294
5.43000	10279
5.43067	10265
5.43133	10251
5.43200	10237
5.43267	10222
5.43333	10208
5.43400	10194
5.43467	10180
5.43533	10167
5.43600	10153
5.43667	10139
5.43733	10126
5.43800	10112
5.43867	10098
5.43933	10085
5.44000	10071
5.44067	10058
5.44133	10045
5.44200	10032
5.44267	10018
5.44333	10005
5.44400	9992
5.44467	9980
5.44533	9967
5.44600	9954
5.44667	9941
5.44733	9929
5.44800	9916
5.44867	9904
5.44933	9891
5.45000	9879
5.45067	9867
5.45133	9854
5.45200	9842
5.45267	9830
5.45333	9818
5.45400	9807
5.45467	9795
5.45533	9783
5.45600	9772
5.45667	9761
5.45733	9749
5.45800	9738
5.45867	9727
5.45933	9716
5.46000	9705
5.46067	9694
5.46133	9683
5.46200	9673
5.46267	9662
5.46333	9652
5.46400	9641
5.46467	9631
5.46533	9621
5.46600	9610
5.46667	9600
5.46733	9590
5.46800	9580
5.46867	9570
5.46933	9560
5.47000	9550
5.47067	9540
5.47133	9531
5.47200	9521
5.47267	9511
5.47333	9501
5.47400	9492
5.47467	9482
5.47533	9472
5.47600	9463
5.47667	9453
5.47733	9444
5.47800	9434
5.47867	9425
5.47933	9415
5.48000	9406
5.48067	9397
5.48133	9388
5.48200	9378
5.48267	9369
5.48333	9360
5.48400	9351
5.48467	9342
5.48533	9333
5.48600	9324
5.48667	9315
5.48733	9306
5.48800	9297
5.48867	9288
5.48933	9279
5.49000	9271
5.49067	9262
5.49133	9253
5.49200	9244
5.49267	9235
5.49333	9226
5.49400	9218
5.49467	9209
5.49533	9200
5.49600	9191
5.49667	9183
5.49733	9174
5.49800	9165
5.49867	9156
5.49933	9148
5.50000	9139
5.50067	9130
5.50133	9122
5.50200	9113
5.50267	9104
5.50333	9096
5.50400	9087
5.50467	9079
5.50533	9071
5.50600	9062
5.50667	9054
5.50733	9046
5.50800	9038
5.50867	9030
5.50933	9022
5.51000	9014
5.51067	9006
5.51133	8998
5.51200	8990
5.51267	8982
5.51333	8975
5.51400	8967
5.51467	8959
5.51533	8952
5.51600	8944
5.51667	8937
5.51733	8930
5.51800	8922
5.51867	8915
5.51933	8908
5.52000	8901
5.52067	8894
5.52133	8887
5.52200	8880
5.52267	8873
5.52333	8866
5.52400	8859
5.52467	8852
5.52533	8845
5.52600	8838
5.52667	8831
5.52733	8825
5.52800	8818
5.52867	8811
5.52933	8805
5.53000	8798
5.53067	8792
5.53133	8785
5.53200	8779
5.53267	8772
5.53333	8766
5.53400	8759
5.53467	8753
5.53533	8747
5.53600	8740
5.53667	8734
5.53733	8728
5.53800	8722
5.53867	8715
5.53933	8709
5.54000	8703
5.54067	8697
5.54133	8691
5.54200	8685
5.54267	8679
5.54333	8673
5.54400	8668
5.54467	8662
5.54533	8656
5.54600	8650
5.54667	8645
5.54733	8639
5.54800	8633
5.54867	8628
5.54933	8622
5.55000	8617
5.55067	8611
5.55133	8606
5.55200	8601
5.55267	8596
5.55333	8591
5.55400	8586
5.55467	8581
5.55533	8576
5.55600	8571
5.55667	8566
5.55733	8561
5.55800	8556
5.55867	8552
5.55933	8547
5.56000	8542
5.56067	8538
5.56133	8533
5.56200	8529
5.56267	8524
5.56333	8520
5.56400	8515
5.56467	8511
5.56533	8506
5.56600	8502
5.56667	8498
5.56733	8494
5.56800	8489
5.56867	8485
5.56933	8481
5.57000	8477
5.57067	8473
5.57133	8469
5.57200	8465
5.57267	8461
5.57333	8457
5.57400	8453
5.57467	8450
5.57533	8446
5.57600	8442
5.57667	8439
5.57733	8435
5.57800	8431
5.57867	8428
5.57933	8424
5.58000	8420
5.58067	8417
5.58133	8413
5.58200	8410
5.58267	8406
5.58333	8403
5.58400	8399
5.58467	8395
5.58533	8392
5.58600	8388
5.58667	8384
5.58733	8380
5.58800	8377
5.58867	8373
5.58933	8369
5.59000	8365
5.59067	8362
5.59133	8358
5.59200	8354
5.59267	8350
5.59333	8347
5.59400	8343
5.59467	8339
5.59533	8335
5.59600	8331
5.59667	8328
5.59733	8324
5.59800	8320
5.59867	8316
5.59933	8313
5.60000	8309
5.60067	8305
5.60133	8301
5.60200	8298
5.60267	8294
5.60333	8291
5.60400	8287
5.60467	8284
5.60533	8280
5.60600	8276
5.60667	8273
5.60733	8269
5.60800	8266
5.60867	8262
5.60933	8258
5.61000	8255
5.61067	8251
5.61133	8248
5.61200	8244
5.61267	8241
5.61333	8237
5.61400	8233
5.61467	8230
5.61533	8226
5.61600	8222
5.61667	8219
5.61733	8215
5.61800	8211
5.61867	8207
5.61933	8204
5.62000	8200
5.62067	8196
5.62133	8193
5.62200	8189
5.62267	8186
5.62333	8182
5.62400	8178
5.62467	8175
5.62533	8171
5.62600	8168
5.62667	8164
5.62733	8161
5.62800	8157
5.62867	8153
5.62933	8150
5.63000	8146
5.63067	8143
5.63133	8139
5.63200	8136
5.63267	8132
5.63333	8129
5.63400	8125
5.63467	8122
5.63533	8118
5.63600	8115
5.63667	8112
5.63733	8108
5.63800	8105
5.63867	8101
5.63933	8098
5.64000	8095
5.64067	8092
5.64133	8088
5.64200	8085
5.64267	8082
5.64333	8078
5.64400	8075
5.64467	8072
5.64533	8068
5.64600	8065
5.64667	8062
5.64733	8058
5.64800	8055
5.64867	8052
5.64933	8049
5.65000	8046
5.65067	8042
5.65133	8039
5.65200	8036
5.65267	8033
5.65333	8030
5.65400	8027
5.65467	8024
5.65533	8021
5.65600	8017
5.65667	8014
5.65733	8011
5.65800	8008
5.65867	8005
5.65933	8003
5.66000	8000
5.66067	7997
5.66133	7994
5.66200	7991
5.66267	7988
5.66333	7985
5.66400	7982
5.66467	7979
5.66533	7976
5.66600	7973
5.66667	7971
5.66733	7968
5.66800	7965
5.66867	7962
5.66933	7959
5.67000	7956
5.67067	7953
5.67133	7949
5.67200	7946
5.67267	7943
5.67333	7940
5.67400	7937
5.67467	7934
5.67533	7931
5.67600	7928
5.67667	7925
5.67733	7923
5.67800	7920
5.67867	7917
5.67933	7914
5.68000	7911
5.68067	7908
5.68133	7906
5.68200	7903
5.68267	7900
5.68333	7897
5.68400	7895
5.68467	7892
5.68533	7890
5.68600	7887
5.68667	7885
5.68733	7882
5.68800	7880
5.68867	7877
5.68933	7875
5.69000	7872
5.69067	7870
5.69133	7867
5.69200	7865
5.69267	7862
5.69333	7859
5.69400	7857
5.69467	7854
5.69533	7852
5.69600	7850
5.69667	7847
5.69733	7845
5.69800	7842
5.69867	7840
5.69933	7838
5.70000	7835
5.70067	7833
5.70133	7830
5.70200	7828
5.70267	7826
5.70333	7823
5.70400	7821
5.70467	7819
5.70533	7816
5.70600	7814
5.70667	7812
5.70733	7810
5.70800	7807
5.70867	7805
5.70933	7803
5.71000	7801
5.71067	7799
5.71133	7797
5.71200	7795
5.71267	7793
5.71333	7790
5.71400	7788
5.71467	7786
5.71533	7784
5.71600	7782
5.71667	7780
5.71733	7778
5.71800	7776
5.71867	7774
5.71933	7773
5.72000	7771
5.72067	7769
5.72133	7767
5.72200	7766
5.72267	7764
5.72333	7762
5.72400	7761
5.72467	7759
5.72533	7757
5.72600	7756
5.72667	7754
5.72733	7753
5.72800	7752
5.72867	7750
5.72933	7749
5.73000	7748
5.73067	7746
5.73133	7745
5.73200	7744
5.73267	7743
5.73333	7742
5.73400	7741
5.73467	7740
5.73533	7739
5.73600	7738
5.73667	7737
5.73733	7736
5.73800	7735
5.73867	7734
5.73933	7733
5.74000	7732
5.74067	7731
5.74133	7731
5.74200	7730
5.74267	7729
5.74333	7728
5.74400	7728
5.74467	7728
5.74533	7727
5.74600	7727
5.74667	7727
5.74733	7726
5.74800	7726
5.74867	7726
5.74933	7726
5.75000	7726
5.75067	7727
5.75133	7727
5.75200	7727
5.75267	7728
5.75333	7728
5.75400	7728
5.75467	7729
5.75533	7729
5.75600	7730
5.75667	7730
5.75733	7731
5.75800	7732
5.75867	7732
5.75933	7733
5.76000	7734
5.76067	7735
5.76133	7735
5.76200	7736
5.76267	7737
5.76333	7738
5.76400	7739
5.76467	7740
5.76533	7740
5.76600	7741
5.76667	7742
5.76733	7743
5.76800	7744
5.76867	7745
5.76933	7746
5.77000	7748
5.77067	7749
5.77133	7750
5.77200	7751
5.77267	7753
5.77333	7754
5.77400	7756
5.77467	7757
5.77533	7759
5.77600	7761
5.77667	7762
5.77733	7764
5.77800	7766
5.77867	7768
5.77933	7770
5.78000	7772
5.78067	7774
5.78133	7776
5.78200	7778
5.78267	7780
5.78333	7782
5.78400	7784
5.78467	7786
5.78533	7788
5.78600	7790
5.78667	7792
5.78733	7794
5.78800	7796
5.78867	7799
5.78933	7801
5.79000	7803
5.79067	7805
5.79133	7807
5.79200	7810
5.79267	7812
5.79333	7814
5.79400	7817
5.79467	7819
5.79533	7822
5.79600	7824
5.79667	7827
5.79733	7829
5.79800	7832
5.79867	7835
5.79933	7837
5.80000	7840
5.80067	7842
5.80133	7845
5.80200	7847
5.80267	7850
5.80333	7853
5.80400	7855
5.80467	7858
5.80533	7860
5.80600	7863
5.80667	7865
5.80733	7868
5.80800	7871
5.80867	7873
5.80933	7876
5.81000	7878
5.81067	7881
5.81133	7884
5.81200	7887
5.81267	7889
5.81333	7892
5.81400	7895
5.81467	7898
5.81533	7901
5.81600	7903
5.81667	7906
5.81733	7909
5.81800	7912
5.81867	7915
5.81933	7918
5.82000	7921
5.82067	7923
5.82133	7926
5.82200	7929
5.82267	7932
5.82333	7935
5.82400	7938
5.82467	7940
5.82533	7943
5.82600	7946
5.82667	7948
5.82733	7951
5.82800	7954
5.82867	7956
5.82933	7959
5.83000	7961
5.83067	7964
5.83133	7967
5.83200	7969
5.83267	7972
5.83333	7974
5.83400	7976
5.83467	7979
5.83533	7981
5.83600	7984
5.83667	7986
5.83733	7988
5.83800	7990
5.83867	7993
5.83933	7995
5.84000	7997
5.84067	7999
5.84133	8002
5.84200	8004
5.84267	8006
5.84333	8008
5.84400	8010
5.84467	8012
5.84533	8014
5.84600	8016
5.84667	8017
5.84733	8019
5.84800	8021
5.84867	8022
5.84933	8024
5.85000	8025
5.85067	8027
5.85133	8028
5.85200	8030
5.85267	8031
5.85333	8032
5.85400	8034
5.85467	8035
5.85533	8036
5.85600	8037
5.85667	8037
5.85733	8038
5.85800	8039
5.85867	8039
5.85933	8040
5.86000	8040
5.86067	8040
5.86133	8041
5.86200	8041
5.86267	8041
5.86333	8041
5.86400	8041
5.86467	8041
5.86533	8040
5.86600	8040
5.86667	8040
5.86733	8039
5.86800	8039
5.86867	8038
5.86933	8038
5.87000	8037
5.87067	8036
5.87133	8035
5.87200	8035
5.87267	8034
5.87333	8033
5.87400	8032
5.87467	8030
5.87533	8029
5.87600	8028
5.87667	8027
5.87733	8025
5.87800	8024
5.87867	8023
5.87933	8021
5.88000	8019
5.88067	8018
5.88133	8016
5.88200	8014
5.88267	8012
5.88333	8010
5.88400	8009
5.88467	8006
5.88533	8004
5.88600	8002
5.88667	8000
5.88733	7998
5.88800	7996
5.88867	7993
5.88933	7991
5.89000	7989
5.89067	7986
5.89133	7983
5.89200	7981
5.89267	7978
5.89333	7975
5.89400	7972
5.89467	7969
5.89533	7966
5.89600	7963
5.89667	7960
5.89733	7957
5.89800	7954
5.89867	7950
5.89933	7947
5.90000	7944
5.90067	7940
5.90133	7937
5.90200	7933
5.90267	7929
5.90333	7926
5.90400	7922
5.90467	7918
5.90533	7915
5.90600	7911
5.90667	7907
5.90733	7903
5.90800	7899
5.90867	7895
5.90933	7891
5.91000	7887
5.91067	7883
5.91133	7879
5.91200	7875
5.91267	7871
5.91333	7867
5.91400	7863
5.91467	7859
5.91533	7855
5.91600	7852
5.91667	7848
5.91733	7844
5.91800	7840
5.91867	7836
5.91933	7832
5.92000	7828
5.92067	7824
5.92133	7820
5.92200	7815
5.92267	7811
5.92333	7807
5.92400	7803
5.92467	7800
5.92533	7796
5.92600	7792
5.92667	7788
5.92733	7784
5.92800	7780
5.92867	7776
5.92933	7772
5.93000	7768
5.93067	7764
5.93133	7760
5.93200	7757
5.93267	7753
5.93333	7749
5.93400	7745
5.93467	7742
5.93533	7738
5.93600	7734
5.93667	7730
5.93733	7727
5.93800	7723
5.93867	7720
5.93933	7716
5.94000	7712
5.94067	7709
5.94133	7705
5.94200	7702
5.94267	7698
5.94333	7695
5.94400	7691
5.94467	7688
5.94533	7684
5.94600	7680
5.94667	7677
5.94733	7673
5.94800	7670
5.94867	7666
5.94933	7663
5.95000	7659
5.95067	7656
5.95133	7653
5.95200	7649
5.95267	7646
5.95333	7642
5.95400	7639
5.95467	7636
5.95533	7632
5.95600	7629
5.95667	7625
5.95733	7622
5.95800	7619
5.95867	7615
5.95933	7612
5.96000	7609
5.96067	7605
5.96133	7602
5.96200	7599
5.96267	7596
5.96333	7593
5.96400	7589
5.96467	7586
5.96533	7583
5.96600	7580
5.96667	7577
5.96733	7574
5.96800	7571
5.96867	7568
5.96933	7565
5.97000	7562
5.97067	7559
5.97133	7556
5.97200	7553
5.97267	7551
5.97333	7548
5.97400	7545
5.97467	7542
5.97533	7539
5.97600	7536
5.97667	7533
5.97733	7530
5.97800	7527
5.97867	7525
5.97933	7522
5.98000	7519
5.98067	7516
5.98133	7513
5.98200	7511
5.98267	7508
5.98333	7505
5.98400	7503
5.98467	7500
5.98533	7498
5.98600	7495
5.98667	7493
5.98733	7491
5.98800	7488
5.98867	7486
5.98933	7484
5.99000	7482
5.99067	7480
5.99133	7477
5.99200	7475
5.99267	7473
5.99333	7471
5.99400	7469
5.99467	7467
5.99533	7465
5.99600	7463
5.99667	7461
5.99733	7460
5.99800	7458
5.99867	7456
5.99933	7454
6.00000	7451
6.00067	7449
6.00133	7447
6.00200	7445
6.00267	7443
6.00333	7441
6.00400	7439
6.00467	7437
6.00533	7435
6.00600	7432
6.00667	7430
6.00733	7428
6.00800	7426
6.00867	7424
6.00933	7422
6.01000	7419
6.01067	7417
6.01133	7415
6.01200	7413
6.01267	7411
6.01333	7409
6.01400	7407
6.01467	7405
6.01533	7403
6.01600	7401
6.01667	7399
6.01733	7397
6.01800	7395
6.01867	7393
6.01933	7391
6.02000	7389
6.02067	7387
6.02133	7385
6.02200	7383
6.02267	7381
6.02333	7379
6.02400	7377
6.02467	7375
6.02533	7373
6.02600	7371
6.02667	7370
6.02733	7368
6.02800	7366
6.02867	7364
6.02933	7362
6.03000	7360
6.03067	7359
6.03133	7357
6.03200	7355
6.03267	7353
6.03333	7352
6.03400	7350
6.03467	7348
6.03533	7347
6.03600	7345
6.03667	7343
6.03733	7342
6.03800	7340
6.03867	7338
6.03933	7337
6.04000	7335
6.04067	7333
6.04133	7332
6.04200	7330
6.04267	7329
6.04333	7327
6.04400	7326
6.04467	7324
6.04533	7323
6.04600	7321
6.04667	7320
6.04733	7318
6.04800	7316
6.04867	7315
6.04933	7313
6.05000	7312
6.05067	7310
6.05133	7309
6.05200	7307
6.05267	7306
6.05333	7304
6.05400	7303
6.05467	7301
6.05533	7300
6.05600	7298
6.05667	7297
6.05733	7295
6.05800	7294
6.05867	7292
6.05933	7290
6.06000	7289
6.06067	7287
6.06133	7286
6.06200	7284
6.06267	7282
6.06333	7281
6.06400	7279
6.06467	7278
6.06533	7276
6.06600	7274
6.06667	7273
6.06733	7271
6.06800	7270
6.06867	7268
6.06933	7267
6.07000	7265
6.07067	7263
6.07133	7262
6.07200	7260
6.07267	7259
6.07333	7257
6.07400	7256
6.07467	7255
6.07533	7253
6.07600	7252
6.07667	7250
6.07733	7249
6.07800	7248
6.07867	7246
6.07933	7245
6.08000	7244
6.08067	7242
6.08133	7241
6.08200	7240
6.08267	7238
6.08333	7237
6.08400	7236
6.08467	7235
6.08533	7233
6.08600	7232
6.08667	7231
6.08733	7229
6.08800	7228
6.08867	7227
6.08933	7226
6.09000	7224
6.09067	7223
6.09133	7222
6.09200	7221
6.09267	7220
6.09333	7219
6.09400	7218
6.09467	7217
6.09533	7216
6.09600	7215
6.09667	7214
6.09733	7213
6.09800	7212
6.09867	7211
6.09933	7210
6.10000	7209
6.10067	7208
6.10133	7207
6.10200	7207
6.10267	7206
6.10333	7205
6.10400	7204
6.10467	7204
6.10533	7203
6.10600	7202
6.10667	7202
6.10733	7201
6.10800	7200
6.10867	7200
6.10933	7199
6.11000	7198
6.11067	7197
6.11133	7197
6.11200	7196
6.11267	7195
6.11333	7194
6.11400	7193
6.11467	7193
6.11533	7192
6.11600	7191
6.11667	7190
6.11733	7189
6.11800	7188
6.11867	7187
6.11933	7186
6.12000	7185
6.12067	7184
6.12133	7183
6.12200	7182
6.12267	7181
6.12333	7180
6.12400	7179
6.12467	7178
6.12533	7177
6.12600	7176
6.12667	7175
6.12733	7174
6.12800	7173
6.12867	7172
6.12933	7171
6.13000	7170
6.13067	7169
6.13133	7168
6.13200	7167
6.13267	7166
6.13333	7165
6.13400	7164
6.13467	7163
6.13533	7161
6.13600	7160
6.13667	7159
6.13733	7158
6.13800	7157
6.13867	7156
6.13933	7155
6.14000	7153
6.14067	7152
6.14133	7151
6.14200	7150
6.14267	7149
6.14333	7147
6.14400	7146
6.14467	7145
6.14533	7144
6.14600	7143
6.14667	7142
6.14733	7140
6.14800	7139
6.14867	7138
6.14933	7137
6.15000	7136
6.15067	7135
6.15133	7134
6.15200	7133
6.15267	7133
6.15333	7132
6.15400	7131
6.15467	7130
6.15533	7129
6.15600	7128
6.15667	7127
6.15733	7126
6.15800	7125
6.15867	7125
6.15933	7124
6.16000	7123
6.16067	7122
6.16133	7121
6.16200	7120
6.16267	7120
6.16333	7119
6.16400	7118
6.16467	7117
6.16533	7116
6.16600	7115
6.16667	7115
6.16733	7114
6.16800	7113
6.16867	7112
6.16933	7112
6.17000	7111
6.17067	7111
6.17133	7110
6.17200	7110
6.17267	7109
6.17333	7109
6.17400	7108
6.17467	7108
6.17533	7108
6.17600	7107
6.17667	7107
6.17733	7107
6.17800	7106
6.17867	7106
6.17933	7106
6.18000	7106
6.18067	7106
6.18133	7105
6.18200	7105
6.18267	7105
6.18333	7105
6.18400	7105
6.18467	7105
6.18533	7105
6.18600	7105
6.18667	7105
6.18733	7105
6.18800	7105
6.18867	7105
6.18933	7106
6.19000	7106
6.19067	7106
6.19133	7106
6.19200	7107
6.19267	7107
6.19333	7107
6.19400	7108
6.19467	7108
6.19533	7108
6.19600	7109
6.19667	7110
6.19733	7110
6.19800	7111
6.19867	7112
6.19933	7113
6.20000	7113
6.20067	7114
6.20133	7115
6.20200	7116
6.20267	7117
6.20333	7119
6.20400	7120
6.20467	7121
6.20533	7122
6.20600	7124
6.20667	7125
6.20733	7126
6.20800	7128
6.20867	7129
6.20933	7131
6.21000	7132
6.21067	7134
6.21133	7135
6.21200	7137
6.21267	7139
6.21333	7141
6.21400	7142
6.21467	7144
6.21533	7146
6.21600	7148
6.21667	7150
6.21733	7152
6.21800	7154
6.21867	7157
6.21933	7159
6.22000	7161
6.22067	7163
6.22133	7165
6.22200	7167
6.22267	7169
6.22333	7172
6.22400	7174
6.22467	7176
6.22533	7179
6.22600	7181
6.22667	7183
6.22733	7186
6.22800	7188
6.22867	7191
6.22933	7193
6.23000	7196
6.23067	7199
6.23133	7201
6.23200	7204
6.23267	7207
6.23333	7209
6.23400	7212
6.23467	7215
6.23533	7217
6.23600	7220
6.23667	7223
6.23733	7226
6.23800	7229
6.23867	7231
6.23933	7234
6.24000	7237
6.24067	7240
6.24133	7242
6.24200	7245
6.24267	7248
6.24333	7251
6.24400	7254
6.24467	7257
6.24533	7259
6.24600	7262
6.24667	7265
6.24733	7268
6.24800	7271
6.24867	7274
6.24933	7277
6.25000	7279
6.25067	7282
6.25133	7285
6.25200	7288
6.25267	7291
6.25333	7293
6.25400	7296
6.25467	7299
6.25533	7302
6.25600	7304
6.25667	7307
6.25733	7310
6.25800	7312
6.25867	7315
6.25933	7317
6.26000	7320
6.26067	7322
6.26133	7325
6.26200	7327
6.26267	7330
6.26333	7332
6.26400	7334
6.26467	7337
6.26533	7339
6.26600	7341
6.26667	7343
6.26733	7345
6.26800	7348
6.26867	7350
6.26933	7352
6.27000	7354
6.27067	7356
6.27133	7357
6.27200	7359
6.27267	7361
6.27333	7363
6.27400	7364
6.27467	7366
6.27533	7367
6.27600	7369
6.27667	7370
6.27733	7372
6.27800	7373
6.27867	7374
6.27933	7375
6.28000	7376
6.28067	7377
6.28133	7378
6.28200	7379
6.28267	7380
6.28333	7380
6.28400	7381
6.28467	7381
6.28533	7382
6.28600	7382
6.28667	7382
6.28733	7382
6.28800	7382
6.28867	7382
6.28933	7382
6.29000	7382
6.29067	7382
6.29133	7381
6.29200	7381
6.29267	7381
6.29333	7380
6.29400	7379
6.29467	7379
6.29533	7378
6.29600	7377
6.29667	7376
6.29733	7375
6.29800	7374
6.29867	7373
6.29933	7372
6.30000	7371
6.30067	7369
6.30133	7368
6.30200	7367
6.30267	7366
6.30333	7364
6.30400	7363
6.30467	7361
6.30533	7360
6.30600	7358
6.30667	7356
6.30733	7354
6.30800	7352
6.30867	7351
6.30933	7349
6.31000	7346
6.31067	7344
6.31133	7342
6.31200	7340
6.31267	7337
6.31333	7335
6.31400	7333
6.31467	7330
6.31533	7327
6.31600	7325
6.31667	7322
6.31733	7319
6.31800	7316
6.31867	7313
6.31933	7311
6.32000	7308
6.32067	7304
6.32133	7301
6.32200	7298
6.32267	7295
6.32333	7292
6.32400	7289
6.32467	7285
6.32533	7282
6.32600	7278
6.32667	7275
6.32733	7271
6.32800	7268
6.32867	7264
6.32933	7261
6.33000	7257
6.33067	7253
6.33133	7249
6.33200	7246
6.33267	7242
6.33333	7238
6.33400	7234
6.33467	7230
6.33533	7226
6.33600	7222
6.33667	7218
6.33733	7214
6.33800	7210
6.33867	7206
6.33933	7202
6.34000	7198
6.34067	7194
6.34133	7189
6.34200	7185
6.34267	7181
6.34333	7176
6.34400	7172
6.34467	7168
6.34533	7163
6.34600	7159
6.34667	7154
6.34733	7150
6.34800	7146
6.34867	7141
6.34933	7137
6.35000	7133
6.35067	7128
6.35133	7124
6.35200	7120
6.35267	7115
6.35333	7111
6.35400	7107
6.35467	7102
6.35533	7098
6.35600	7094
6.35667	7090
6.35733	7085
6.35800	7081
6.35867	7077
6.35933	7073
6.36000	7069
6.36067	7064
6.36133	7060
6.36200	7056
6.36267	7052
6.36333	7048
6.36400	7044
6.36467	7040
6.36533	7036
6.36600	7032
6.36667	7028
6.36733	7025
6.36800	7021
6.36867	7017
6.36933	7013
6.37000	7009
6.37067	7005
6.37133	7001
6.37200	6997
6.37267	6993
6.37333	6990
6.37400	6986
6.37467	6982
6.37533	6978
6.37600	6974
6.37667	6971
6.37733	6967
6.37800	6963
6.37867	6959
6.37933	6956
6.38000	6952
6.38067	6948
6.38133	6945
6.38200	6941
6.38267	6937
6.38333	6934
6.38400	6930
6.38467	6926
6.38533	6923
6.38600	6919
6.38667	6916
6.38733	6912
6.38800	6909
6.38867	6906
6.38933	6902
6.39000	6899
6.39067	6896
6.39133	6892
6.39200	6889
6.39267	6886
6.39333	6883
6.39400	6880
6.39467	6876
6.39533	6873
6.39600	6870
6.39667	6867
6.39733	6864
6.39800	6860
6.39867	6858
6.39933	6855

