[Header]
Application Name	LabSolutions
Version	5.73
Data File Name	C:\LabSolutions\Data\Project1\stephen\2016-01-04\65.gcd
Output Date	1/5/2016
Output Time	4:51:41 PM

[Configuration]
Instrument Name	WEISSTA-PC-Instrument1
Instrument #	1
Line #	1
# of Detectors	1
Detector ID	DET#2
Detector Name	DFID1
# of Channels	1

[Chromatogram (Ch1)]
Interval(msec)	40
# of Points	9599
Start Time(min)	0.001
End Time(min)	6.399
R.Time (min)	Intensity
0.00067	19
0.00133	19
0.00200	20
0.00267	20
0.00333	20
0.00400	20
0.00467	20
0.00533	20
0.00600	20
0.00667	21
0.00733	21
0.00800	21
0.00867	21
0.00933	21
0.01000	21
0.01067	20
0.01133	19
0.01200	18
0.01267	17
0.01333	16
0.01400	14
0.01467	13
0.01533	11
0.01600	9
0.01667	6
0.01733	4
0.01800	1
0.01867	-2
0.01933	-5
0.02000	-8
0.02067	-11
0.02133	-14
0.02200	-17
0.02267	-20
0.02333	-23
0.02400	-26
0.02467	-29
0.02533	-32
0.02600	-35
0.02667	-37
0.02733	-40
0.02800	-43
0.02867	-45
0.02933	-47
0.03000	-49
0.03067	-51
0.03133	-53
0.03200	-55
0.03267	-57
0.03333	-58
0.03400	-60
0.03467	-61
0.03533	-63
0.03600	-64
0.03667	-65
0.03733	-66
0.03800	-67
0.03867	-68
0.03933	-69
0.04000	-70
0.04067	-70
0.04133	-71
0.04200	-72
0.04267	-72
0.04333	-73
0.04400	-73
0.04467	-73
0.04533	-74
0.04600	-74
0.04667	-74
0.04733	-74
0.04800	-75
0.04867	-75
0.04933	-75
0.05000	-75
0.05067	-75
0.05133	-76
0.05200	-76
0.05267	-76
0.05333	-76
0.05400	-76
0.05467	-77
0.05533	-77
0.05600	-77
0.05667	-77
0.05733	-77
0.05800	-78
0.05867	-78
0.05933	-78
0.06000	-78
0.06067	-78
0.06133	-79
0.06200	-79
0.06267	-79
0.06333	-79
0.06400	-79
0.06467	-79
0.06533	-80
0.06600	-80
0.06667	-80
0.06733	-80
0.06800	-80
0.06867	-80
0.06933	-80
0.07000	-81
0.07067	-81
0.07133	-81
0.07200	-81
0.07267	-81
0.07333	-81
0.07400	-81
0.07467	-81
0.07533	-82
0.07600	-82
0.07667	-82
0.07733	-82
0.07800	-82
0.07867	-82
0.07933	-82
0.08000	-82
0.08067	-82
0.08133	-82
0.08200	-82
0.08267	-82
0.08333	-81
0.08400	-79
0.08467	-74
0.08533	-61
0.08600	-31
0.08667	33
0.08733	123
0.08800	239
0.08867	403
0.08933	626
0.09000	918
0.09067	1292
0.09133	1736
0.09200	2284
0.09267	2935
0.09333	3675
0.09400	4493
0.09467	5450
0.09533	6508
0.09600	7671
0.09667	8943
0.09733	10276
0.09800	11740
0.09867	13328
0.09933	15020
0.10000	16813
0.10067	18714
0.10133	20797
0.10200	22972
0.10267	25267
0.10333	27792
0.10400	30392
0.10467	33024
0.10533	35687
0.10600	38352
0.10667	41081
0.10733	43914
0.10800	46743
0.10867	49482
0.10933	52167
0.11000	54811
0.11067	57371
0.11133	59847
0.11200	62238
0.11267	64587
0.11333	66847
0.11400	69162
0.11467	71445
0.11533	73624
0.11600	75691
0.11667	77743
0.11733	79673
0.11800	81474
0.11867	83100
0.11933	84563
0.12000	85908
0.12067	87105
0.12133	88162
0.12200	89104
0.12267	89908
0.12333	90579
0.12400	91127
0.12467	91548
0.12533	91837
0.12600	92018
0.12667	92155
0.12733	92254
0.12800	92281
0.12867	92231
0.12933	92151
0.13000	92114
0.13067	92453
0.13133	94477
0.13200	101848
0.13267	123373
0.13333	176257
0.13400	290928
0.13467	507921
0.13533	873552
0.13600	1430180
0.13667	2215197
0.13733	3256161
0.13800	4572151
0.13867	6173263
0.13933	8063759
0.14000	10242993
0.14067	12708287
0.14133	15454533
0.14200	18474788
0.14267	21763381
0.14333	25321700
0.14400	29150797
0.14467	33245338
0.14533	37590818
0.14600	42166721
0.14667	46948377
0.14733	51908393
0.14800	57018659
0.14867	62253141
0.14933	67588212
0.15000	73002899
0.15067	78478290
0.15133	83996991
0.15200	89542922
0.15267	95101746
0.15333	100660196
0.15400	106206616
0.15467	111728729
0.15533	117215278
0.15600	122656342
0.15667	128043023
0.15733	133367006
0.15800	138620788
0.15867	143797503
0.15933	148890672
0.16000	153894546
0.16067	158803785
0.16133	163613285
0.16200	168318091
0.16267	172913568
0.16333	177395467
0.16400	181759921
0.16467	186003079
0.16533	190121695
0.16600	194112240
0.16667	197971541
0.16733	201696530
0.16800	205284539
0.16867	208732667
0.16933	212038154
0.17000	215197789
0.17067	218208522
0.17133	221065961
0.17200	223765717
0.17267	226302757
0.17333	228672089
0.17400	230868075
0.17467	232885461
0.17533	234719279
0.17600	236365430
0.17667	237820747
0.17733	239083230
0.17800	240151876
0.17867	241026730
0.17933	241708844
0.18000	242200111
0.18067	242503675
0.18133	242623160
0.18200	242562973
0.18267	242327692
0.18333	241922270
0.18400	241351734
0.18467	240621642
0.18533	239737517
0.18600	238705222
0.18667	237530681
0.18733	236219854
0.18800	234778651
0.18867	233213110
0.18933	231529058
0.19000	229732486
0.19067	227829349
0.19133	225825611
0.19200	223727064
0.19267	221539459
0.19333	219268447
0.19400	216919581
0.19467	214498332
0.19533	212010056
0.19600	209460033
0.19667	206853415
0.19733	204195358
0.19800	201490966
0.19867	198745365
0.19933	195963566
0.20000	193150408
0.20067	190310473
0.20133	187448214
0.20200	184568032
0.20267	181674437
0.20333	178771828
0.20400	175864047
0.20467	172954164
0.20533	170044587
0.20600	167137267
0.20667	164233998
0.20733	161336548
0.20800	158446708
0.20867	155566299
0.20933	152697159
0.21000	149841146
0.21067	147000097
0.21133	144175834
0.21200	141370117
0.21267	138584647
0.21333	135821026
0.21400	133080804
0.21467	130365424
0.21533	127676261
0.21600	125014587
0.21667	122381597
0.21733	119778387
0.21800	117205981
0.21867	114665294
0.21933	112157173
0.22000	109682377
0.22067	107241591
0.22133	104835423
0.22200	102464411
0.22267	100129019
0.22333	97829651
0.22400	95566637
0.22467	93340247
0.22533	91150702
0.22600	88998169
0.22667	86882762
0.22733	84804543
0.22800	82763535
0.22867	80759710
0.22933	78793000
0.23000	76863300
0.23067	74970474
0.23133	73114351
0.23200	71294737
0.23267	69511397
0.23333	67764075
0.23400	66052485
0.23467	64376322
0.23533	62735255
0.23600	61128936
0.23667	59556997
0.23733	58019053
0.23800	56514703
0.23867	55043533
0.23933	53605115
0.24000	52199012
0.24067	50824777
0.24133	49481953
0.24200	48170078
0.24267	46888680
0.24333	45637282
0.24400	44415403
0.24467	43222560
0.24533	42058264
0.24600	40922026
0.24667	39813352
0.24733	38731750
0.24800	37676727
0.24867	36647791
0.24933	35644451
0.25000	34666219
0.25067	33712605
0.25133	32783125
0.25200	31877299
0.25267	30994650
0.25333	30134701
0.25400	29296983
0.25467	28481027
0.25533	27686369
0.25600	26912552
0.25667	26159122
0.25733	25425629
0.25800	24711630
0.25867	24016688
0.25933	23340371
0.26000	22682253
0.26067	22041914
0.26133	21418942
0.26200	20812927
0.26267	20223469
0.26333	19650172
0.26400	19092647
0.26467	18550516
0.26533	18023404
0.26600	17510941
0.26667	17012766
0.26733	16528524
0.26800	16057868
0.26867	15600458
0.26933	15155961
0.27000	14724053
0.27067	14304412
0.27133	13896727
0.27200	13500690
0.27267	13116004
0.27333	12742376
0.27400	12379520
0.27467	12027157
0.27533	11685015
0.27600	11352829
0.27667	11030343
0.27733	10717304
0.27800	10413471
0.27867	10118604
0.27933	9832477
0.28000	9554868
0.28067	9285564
0.28133	9024363
0.28200	8771068
0.28267	8525495
0.28333	8287465
0.28400	8056812
0.28467	7833380
0.28533	7617027
0.28600	7407628
0.28667	7205073
0.28733	7009266
0.28800	6820122
0.28867	6637563
0.28933	6461511
0.29000	6291894
0.29067	6128632
0.29133	5971642
0.29200	5820837
0.29267	5676121
0.29333	5537386
0.29400	5404523
0.29467	5277408
0.29533	5155915
0.29600	5039904
0.29667	4929230
0.29733	4823733
0.29800	4723252
0.29867	4627614
0.29933	4536649
0.30000	4450186
0.30067	4368059
0.30133	4290098
0.30200	4216138
0.30267	4146013
0.30333	4079557
0.30400	4016607
0.30467	3957000
0.30533	3900576
0.30600	3847176
0.30667	3796642
0.30733	3748821
0.30800	3703566
0.30867	3660732
0.30933	3620181
0.31000	3581781
0.31067	3545408
0.31133	3510947
0.31200	3478288
0.31267	3447333
0.31333	3417991
0.31400	3390178
0.31467	3363816
0.31533	3338830
0.31600	3315145
0.31667	3292684
0.31733	3271366
0.31800	3251111
0.31867	3231836
0.31933	3213459
0.32000	3195896
0.32067	3179065
0.32133	3162887
0.32200	3147284
0.32267	3132174
0.32333	3117468
0.32400	3103069
0.32467	3088869
0.32533	3074753
0.32600	3060605
0.32667	3046308
0.32733	3031741
0.32800	3016789
0.32867	3001331
0.32933	2985255
0.33000	2968455
0.33067	2950830
0.33133	2932291
0.33200	2912760
0.33267	2892172
0.33333	2870478
0.33400	2847646
0.33467	2823661
0.33533	2798523
0.33600	2772249
0.33667	2744870
0.33733	2716427
0.33800	2686972
0.33867	2656564
0.33933	2625268
0.34000	2593153
0.34067	2560290
0.34133	2526751
0.34200	2492605
0.34267	2457926
0.34333	2422782
0.34400	2387241
0.34467	2351368
0.34533	2315225
0.34600	2278873
0.34667	2242369
0.34733	2205767
0.34800	2169119
0.34867	2132474
0.34933	2095877
0.35000	2059369
0.35067	2022992
0.35133	1986781
0.35200	1950771
0.35267	1914994
0.35333	1879478
0.35400	1844251
0.35467	1809338
0.35533	1774760
0.35600	1740540
0.35667	1706695
0.35733	1673242
0.35800	1640197
0.35867	1607573
0.35933	1575382
0.36000	1543636
0.36067	1512343
0.36133	1481511
0.36200	1451147
0.36267	1421258
0.36333	1391848
0.36400	1362922
0.36467	1334484
0.36533	1306535
0.36600	1279078
0.36667	1252113
0.36733	1225640
0.36800	1199659
0.36867	1174168
0.36933	1149164
0.37000	1124646
0.37067	1100610
0.37133	1077053
0.37200	1053971
0.37267	1031361
0.37333	1009216
0.37400	987533
0.37467	966307
0.37533	945531
0.37600	925201
0.37667	905311
0.37733	885855
0.37800	866826
0.37867	848218
0.37933	830024
0.38000	812237
0.38067	794851
0.38133	777861
0.38200	761261
0.38267	745046
0.38333	729210
0.38400	713748
0.38467	698656
0.38533	683927
0.38600	669556
0.38667	655540
0.38733	641873
0.38800	628551
0.38867	615573
0.38933	602934
0.39000	590634
0.39067	578673
0.39133	567050
0.39200	555764
0.39267	544815
0.39333	534198
0.39400	523907
0.39467	513932
0.39533	504267
0.39600	494904
0.39667	485833
0.39733	477047
0.39800	468536
0.39867	460290
0.39933	452302
0.40000	444561
0.40067	437060
0.40133	429790
0.40200	422743
0.40267	415910
0.40333	409283
0.40400	402856
0.40467	396620
0.40533	390569
0.40600	384696
0.40667	378995
0.40733	373459
0.40800	368082
0.40867	362859
0.40933	357784
0.41000	352851
0.41067	348056
0.41133	343395
0.41200	338861
0.41267	334451
0.41333	330160
0.41400	325985
0.41467	321921
0.41533	317964
0.41600	314110
0.41667	310356
0.41733	306698
0.41800	303133
0.41867	299658
0.41933	296268
0.42000	292962
0.42067	289736
0.42133	286586
0.42200	283512
0.42267	280509
0.42333	277576
0.42400	274709
0.42467	271906
0.42533	269165
0.42600	266484
0.42667	263859
0.42733	261291
0.42800	258776
0.42867	256313
0.42933	253899
0.43000	251534
0.43067	249214
0.43133	246940
0.43200	244708
0.43267	242519
0.43333	240370
0.43400	238259
0.43467	236186
0.43533	234149
0.43600	232147
0.43667	230180
0.43733	228245
0.43800	226343
0.43867	224471
0.43933	222630
0.44000	220817
0.44067	219033
0.44133	217276
0.44200	215545
0.44267	213841
0.44333	212161
0.44400	210505
0.44467	208873
0.44533	207263
0.44600	205674
0.44667	204107
0.44733	202561
0.44800	201034
0.44867	199527
0.44933	198038
0.45000	196566
0.45067	195112
0.45133	193676
0.45200	192255
0.45267	190850
0.45333	189460
0.45400	188086
0.45467	186726
0.45533	185380
0.45600	184048
0.45667	182730
0.45733	181425
0.45800	180133
0.45867	178855
0.45933	177589
0.46000	176336
0.46067	175097
0.46133	173869
0.46200	172655
0.46267	171453
0.46333	170263
0.46400	169086
0.46467	167922
0.46533	166770
0.46600	165631
0.46667	164504
0.46733	163390
0.46800	162288
0.46867	161197
0.46933	160119
0.47000	159053
0.47067	157998
0.47133	156955
0.47200	155923
0.47267	154902
0.47333	153892
0.47400	152892
0.47467	151903
0.47533	150923
0.47600	149954
0.47667	148994
0.47733	148043
0.47800	147102
0.47867	146169
0.47933	145246
0.48000	144331
0.48067	143425
0.48133	142527
0.48200	141638
0.48267	140756
0.48333	139882
0.48400	139016
0.48467	138157
0.48533	137306
0.48600	136462
0.48667	135624
0.48733	134794
0.48800	133971
0.48867	133154
0.48933	132344
0.49000	131541
0.49067	130743
0.49133	129953
0.49200	129168
0.49267	128389
0.49333	127617
0.49400	126850
0.49467	126089
0.49533	125334
0.49600	124584
0.49667	123840
0.49733	123102
0.49800	122369
0.49867	121641
0.49933	120919
0.50000	120202
0.50067	119491
0.50133	118785
0.50200	118084
0.50267	117388
0.50333	116697
0.50400	116012
0.50467	115331
0.50533	114656
0.50600	113986
0.50667	113321
0.50733	112661
0.50800	112005
0.50867	111355
0.50933	110710
0.51000	110070
0.51067	109435
0.51133	108805
0.51200	108179
0.51267	107558
0.51333	106941
0.51400	106329
0.51467	105721
0.51533	105118
0.51600	104519
0.51667	103925
0.51733	103335
0.51800	102749
0.51867	102167
0.51933	101589
0.52000	101016
0.52067	100446
0.52133	99881
0.52200	99320
0.52267	98762
0.52333	98209
0.52400	97660
0.52467	97114
0.52533	96573
0.52600	96036
0.52667	95503
0.52733	94974
0.52800	94449
0.52867	93928
0.52933	93411
0.53000	92897
0.53067	92388
0.53133	91883
0.53200	91381
0.53267	90884
0.53333	90390
0.53400	89899
0.53467	89413
0.53533	88930
0.53600	88451
0.53667	87976
0.53733	87504
0.53800	87036
0.53867	86571
0.53933	86110
0.54000	85653
0.54067	85199
0.54133	84749
0.54200	84303
0.54267	83860
0.54333	83421
0.54400	82984
0.54467	82552
0.54533	82123
0.54600	81697
0.54667	81275
0.54733	80856
0.54800	80440
0.54867	80028
0.54933	79619
0.55000	79214
0.55067	78811
0.55133	78412
0.55200	78016
0.55267	77623
0.55333	77234
0.55400	76847
0.55467	76464
0.55533	76084
0.55600	75707
0.55667	75333
0.55733	74963
0.55800	74595
0.55867	74230
0.55933	73869
0.56000	73511
0.56067	73156
0.56133	72804
0.56200	72456
0.56267	72111
0.56333	71769
0.56400	71430
0.56467	71096
0.56533	70764
0.56600	70436
0.56667	70112
0.56733	69792
0.56800	69476
0.56867	69163
0.56933	68854
0.57000	68549
0.57067	68247
0.57133	67950
0.57200	67656
0.57267	67365
0.57333	67078
0.57400	66795
0.57467	66515
0.57533	66238
0.57600	65965
0.57667	65694
0.57733	65426
0.57800	65160
0.57867	64897
0.57933	64636
0.58000	64377
0.58067	64120
0.58133	63866
0.58200	63613
0.58267	63361
0.58333	63112
0.58400	62863
0.58467	62617
0.58533	62371
0.58600	62127
0.58667	61885
0.58733	61643
0.58800	61403
0.58867	61164
0.58933	60926
0.59000	60689
0.59067	60453
0.59133	60218
0.59200	59984
0.59267	59752
0.59333	59520
0.59400	59289
0.59467	59060
0.59533	58831
0.59600	58604
0.59667	58377
0.59733	58152
0.59800	57927
0.59867	57704
0.59933	57481
0.60000	57260
0.60067	57040
0.60133	56821
0.60200	56603
0.60267	56386
0.60333	56170
0.60400	55955
0.60467	55741
0.60533	55528
0.60600	55317
0.60667	55106
0.60733	54896
0.60800	54688
0.60867	54480
0.60933	54273
0.61000	54068
0.61067	53863
0.61133	53660
0.61200	53457
0.61267	53255
0.61333	53055
0.61400	52855
0.61467	52656
0.61533	52459
0.61600	52262
0.61667	52067
0.61733	51872
0.61800	51679
0.61867	51487
0.61933	51297
0.62000	51107
0.62067	50919
0.62133	50732
0.62200	50546
0.62267	50362
0.62333	50179
0.62400	49997
0.62467	49817
0.62533	49639
0.62600	49462
0.62667	49286
0.62733	49113
0.62800	48940
0.62867	48770
0.62933	48601
0.63000	48434
0.63067	48269
0.63133	48106
0.63200	47944
0.63267	47783
0.63333	47625
0.63400	47468
0.63467	47312
0.63533	47158
0.63600	47005
0.63667	46853
0.63733	46702
0.63800	46553
0.63867	46405
0.63933	46258
0.64000	46112
0.64067	45966
0.64133	45822
0.64200	45679
0.64267	45537
0.64333	45395
0.64400	45254
0.64467	45114
0.64533	44976
0.64600	44837
0.64667	44700
0.64733	44564
0.64800	44429
0.64867	44295
0.64933	44162
0.65000	44030
0.65067	43899
0.65133	43769
0.65200	43640
0.65267	43513
0.65333	43386
0.65400	43261
0.65467	43137
0.65533	43014
0.65600	42893
0.65667	42773
0.65733	42654
0.65800	42536
0.65867	42419
0.65933	42304
0.66000	42189
0.66067	42076
0.66133	41964
0.66200	41852
0.66267	41741
0.66333	41632
0.66400	41522
0.66467	41414
0.66533	41306
0.66600	41199
0.66667	41092
0.66733	40986
0.66800	40881
0.66867	40776
0.66933	40672
0.67000	40568
0.67067	40465
0.67133	40362
0.67200	40261
0.67267	40159
0.67333	40059
0.67400	39959
0.67467	39860
0.67533	39761
0.67600	39663
0.67667	39565
0.67733	39469
0.67800	39372
0.67867	39277
0.67933	39182
0.68000	39087
0.68067	38994
0.68133	38901
0.68200	38808
0.68267	38717
0.68333	38627
0.68400	38537
0.68467	38449
0.68533	38362
0.68600	38276
0.68667	38192
0.68733	38110
0.68800	38031
0.68867	37954
0.68933	37882
0.69000	37814
0.69067	37752
0.69133	37695
0.69200	37646
0.69267	37605
0.69333	37575
0.69400	37556
0.69467	37550
0.69533	37559
0.69600	37584
0.69667	37629
0.69733	37693
0.69800	37780
0.69867	37890
0.69933	38025
0.70000	38186
0.70067	38372
0.70133	38586
0.70200	38826
0.70267	39094
0.70333	39388
0.70400	39707
0.70467	40050
0.70533	40416
0.70600	40801
0.70667	41205
0.70733	41623
0.70800	42053
0.70867	42491
0.70933	42933
0.71000	43375
0.71067	43816
0.71133	44251
0.71200	44677
0.71267	45091
0.71333	45492
0.71400	45876
0.71467	46241
0.71533	46586
0.71600	46908
0.71667	47207
0.71733	47482
0.71800	47732
0.71867	47956
0.71933	48154
0.72000	48327
0.72067	48474
0.72133	48597
0.72200	48696
0.72267	48771
0.72333	48824
0.72400	48855
0.72467	48865
0.72533	48855
0.72600	48826
0.72667	48778
0.72733	48714
0.72800	48633
0.72867	48537
0.72933	48426
0.73000	48302
0.73067	48165
0.73133	48017
0.73200	47857
0.73267	47688
0.73333	47508
0.73400	47320
0.73467	47124
0.73533	46921
0.73600	46710
0.73667	46494
0.73733	46271
0.73800	46044
0.73867	45812
0.73933	45575
0.74000	45336
0.74067	45092
0.74133	44846
0.74200	44598
0.74267	44348
0.74333	44096
0.74400	43843
0.74467	43589
0.74533	43334
0.74600	43078
0.74667	42823
0.74733	42568
0.74800	42313
0.74867	42059
0.74933	41806
0.75000	41554
0.75067	41303
0.75133	41053
0.75200	40805
0.75267	40559
0.75333	40315
0.75400	40073
0.75467	39833
0.75533	39596
0.75600	39360
0.75667	39128
0.75733	38898
0.75800	38670
0.75867	38446
0.75933	38224
0.76000	38006
0.76067	37790
0.76133	37577
0.76200	37368
0.76267	37162
0.76333	36959
0.76400	36759
0.76467	36563
0.76533	36370
0.76600	36180
0.76667	35994
0.76733	35811
0.76800	35631
0.76867	35455
0.76933	35282
0.77000	35112
0.77067	34946
0.77133	34783
0.77200	34623
0.77267	34466
0.77333	34313
0.77400	34162
0.77467	34015
0.77533	33870
0.77600	33728
0.77667	33589
0.77733	33453
0.77800	33320
0.77867	33189
0.77933	33060
0.78000	32934
0.78067	32810
0.78133	32689
0.78200	32570
0.78267	32453
0.78333	32337
0.78400	32224
0.78467	32113
0.78533	32003
0.78600	31895
0.78667	31789
0.78733	31684
0.78800	31581
0.78867	31479
0.78933	31378
0.79000	31279
0.79067	31181
0.79133	31085
0.79200	30989
0.79267	30895
0.79333	30802
0.79400	30710
0.79467	30619
0.79533	30529
0.79600	30440
0.79667	30353
0.79733	30266
0.79800	30180
0.79867	30095
0.79933	30011
0.80000	29928
0.80067	29846
0.80133	29765
0.80200	29684
0.80267	29605
0.80333	29526
0.80400	29448
0.80467	29371
0.80533	29295
0.80600	29220
0.80667	29145
0.80733	29071
0.80800	28998
0.80867	28926
0.80933	28854
0.81000	28784
0.81067	28714
0.81133	28645
0.81200	28576
0.81267	28509
0.81333	28442
0.81400	28376
0.81467	28310
0.81533	28246
0.81600	28182
0.81667	28119
0.81733	28056
0.81800	27995
0.81867	27934
0.81933	27874
0.82000	27814
0.82067	27755
0.82133	27697
0.82200	27640
0.82267	27583
0.82333	27526
0.82400	27471
0.82467	27416
0.82533	27362
0.82600	27308
0.82667	27255
0.82733	27203
0.82800	27151
0.82867	27100
0.82933	27050
0.83000	27000
0.83067	26950
0.83133	26902
0.83200	26853
0.83267	26806
0.83333	26759
0.83400	26712
0.83467	26666
0.83533	26621
0.83600	26576
0.83667	26531
0.83733	26488
0.83800	26444
0.83867	26401
0.83933	26358
0.84000	26316
0.84067	26275
0.84133	26233
0.84200	26192
0.84267	26152
0.84333	26112
0.84400	26072
0.84467	26033
0.84533	25994
0.84600	25956
0.84667	25918
0.84733	25880
0.84800	25843
0.84867	25806
0.84933	25770
0.85000	25734
0.85067	25698
0.85133	25663
0.85200	25628
0.85267	25593
0.85333	25559
0.85400	25525
0.85467	25492
0.85533	25458
0.85600	25425
0.85667	25393
0.85733	25360
0.85800	25328
0.85867	25296
0.85933	25265
0.86000	25234
0.86067	25202
0.86133	25172
0.86200	25141
0.86267	25111
0.86333	25081
0.86400	25051
0.86467	25022
0.86533	24992
0.86600	24963
0.86667	24934
0.86733	24906
0.86800	24877
0.86867	24849
0.86933	24822
0.87000	24794
0.87067	24767
0.87133	24739
0.87200	24712
0.87267	24686
0.87333	24659
0.87400	24633
0.87467	24607
0.87533	24581
0.87600	24555
0.87667	24529
0.87733	24504
0.87800	24479
0.87867	24454
0.87933	24429
0.88000	24404
0.88067	24379
0.88133	24355
0.88200	24331
0.88267	24307
0.88333	24283
0.88400	24259
0.88467	24236
0.88533	24212
0.88600	24189
0.88667	24166
0.88733	24143
0.88800	24120
0.88867	24098
0.88933	24075
0.89000	24053
0.89067	24031
0.89133	24009
0.89200	23988
0.89267	23966
0.89333	23944
0.89400	23923
0.89467	23902
0.89533	23881
0.89600	23860
0.89667	23839
0.89733	23818
0.89800	23797
0.89867	23776
0.89933	23756
0.90000	23735
0.90067	23715
0.90133	23694
0.90200	23674
0.90267	23653
0.90333	23633
0.90400	23613
0.90467	23593
0.90533	23573
0.90600	23553
0.90667	23533
0.90733	23513
0.90800	23493
0.90867	23473
0.90933	23453
0.91000	23434
0.91067	23414
0.91133	23395
0.91200	23375
0.91267	23356
0.91333	23336
0.91400	23317
0.91467	23297
0.91533	23278
0.91600	23259
0.91667	23240
0.91733	23221
0.91800	23202
0.91867	23183
0.91933	23164
0.92000	23146
0.92067	23127
0.92133	23109
0.92200	23090
0.92267	23072
0.92333	23054
0.92400	23036
0.92467	23018
0.92533	23000
0.92600	22983
0.92667	22965
0.92733	22948
0.92800	22931
0.92867	22913
0.92933	22896
0.93000	22880
0.93067	22863
0.93133	22847
0.93200	22831
0.93267	22815
0.93333	22799
0.93400	22783
0.93467	22767
0.93533	22752
0.93600	22737
0.93667	22722
0.93733	22707
0.93800	22692
0.93867	22677
0.93933	22662
0.94000	22648
0.94067	22633
0.94133	22619
0.94200	22604
0.94267	22590
0.94333	22576
0.94400	22561
0.94467	22547
0.94533	22533
0.94600	22519
0.94667	22504
0.94733	22490
0.94800	22476
0.94867	22461
0.94933	22447
0.95000	22433
0.95067	22418
0.95133	22404
0.95200	22389
0.95267	22375
0.95333	22360
0.95400	22346
0.95467	22332
0.95533	22317
0.95600	22303
0.95667	22288
0.95733	22274
0.95800	22260
0.95867	22245
0.95933	22231
0.96000	22217
0.96067	22203
0.96133	22189
0.96200	22176
0.96267	22162
0.96333	22149
0.96400	22136
0.96467	22123
0.96533	22110
0.96600	22097
0.96667	22084
0.96733	22071
0.96800	22059
0.96867	22046
0.96933	22034
0.97000	22021
0.97067	22009
0.97133	21996
0.97200	21984
0.97267	21971
0.97333	21959
0.97400	21946
0.97467	21933
0.97533	21921
0.97600	21908
0.97667	21894
0.97733	21881
0.97800	21868
0.97867	21854
0.97933	21840
0.98000	21827
0.98067	21813
0.98133	21798
0.98200	21784
0.98267	21769
0.98333	21755
0.98400	21740
0.98467	21725
0.98533	21709
0.98600	21694
0.98667	21678
0.98733	21663
0.98800	21647
0.98867	21631
0.98933	21615
0.99000	21599
0.99067	21583
0.99133	21567
0.99200	21551
0.99267	21534
0.99333	21518
0.99400	21502
0.99467	21486
0.99533	21469
0.99600	21453
0.99667	21437
0.99733	21421
0.99800	21404
0.99867	21388
0.99933	21372
1.00000	21356
1.00067	21340
1.00133	21325
1.00200	21309
1.00267	21293
1.00333	21277
1.00400	21262
1.00467	21246
1.00533	21231
1.00600	21215
1.00667	21200
1.00733	21185
1.00800	21170
1.00867	21155
1.00933	21141
1.01000	21126
1.01067	21112
1.01133	21098
1.01200	21084
1.01267	21071
1.01333	21057
1.01400	21044
1.01467	21032
1.01533	21019
1.01600	21007
1.01667	20996
1.01733	20984
1.01800	20973
1.01867	20963
1.01933	20953
1.02000	20944
1.02067	20935
1.02133	20926
1.02200	20918
1.02267	20910
1.02333	20903
1.02400	20896
1.02467	20890
1.02533	20884
1.02600	20879
1.02667	20874
1.02733	20869
1.02800	20865
1.02867	20860
1.02933	20856
1.03000	20853
1.03067	20849
1.03133	20846
1.03200	20843
1.03267	20840
1.03333	20836
1.03400	20833
1.03467	20830
1.03533	20827
1.03600	20823
1.03667	20819
1.03733	20815
1.03800	20811
1.03867	20806
1.03933	20802
1.04000	20796
1.04067	20791
1.04133	20785
1.04200	20779
1.04267	20772
1.04333	20765
1.04400	20758
1.04467	20751
1.04533	20743
1.04600	20735
1.04667	20726
1.04733	20717
1.04800	20708
1.04867	20698
1.04933	20689
1.05000	20679
1.05067	20668
1.05133	20658
1.05200	20647
1.05267	20636
1.05333	20625
1.05400	20613
1.05467	20602
1.05533	20590
1.05600	20578
1.05667	20566
1.05733	20554
1.05800	20541
1.05867	20529
1.05933	20516
1.06000	20504
1.06067	20491
1.06133	20479
1.06200	20466
1.06267	20453
1.06333	20440
1.06400	20427
1.06467	20414
1.06533	20401
1.06600	20388
1.06667	20375
1.06733	20362
1.06800	20349
1.06867	20336
1.06933	20323
1.07000	20310
1.07067	20297
1.07133	20284
1.07200	20271
1.07267	20258
1.07333	20245
1.07400	20233
1.07467	20220
1.07533	20208
1.07600	20195
1.07667	20183
1.07733	20171
1.07800	20159
1.07867	20147
1.07933	20135
1.08000	20123
1.08067	20112
1.08133	20100
1.08200	20089
1.08267	20077
1.08333	20066
1.08400	20055
1.08467	20044
1.08533	20033
1.08600	20022
1.08667	20011
1.08733	20000
1.08800	19989
1.08867	19979
1.08933	19969
1.09000	19958
1.09067	19948
1.09133	19938
1.09200	19928
1.09267	19918
1.09333	19908
1.09400	19899
1.09467	19889
1.09533	19879
1.09600	19870
1.09667	19861
1.09733	19851
1.09800	19842
1.09867	19833
1.09933	19824
1.10000	19815
1.10067	19806
1.10133	19797
1.10200	19789
1.10267	19780
1.10333	19772
1.10400	19763
1.10467	19755
1.10533	19747
1.10600	19739
1.10667	19731
1.10733	19724
1.10800	19716
1.10867	19708
1.10933	19701
1.11000	19694
1.11067	19687
1.11133	19680
1.11200	19673
1.11267	19666
1.11333	19660
1.11400	19653
1.11467	19646
1.11533	19640
1.11600	19634
1.11667	19627
1.11733	19621
1.11800	19615
1.11867	19609
1.11933	19603
1.12000	19597
1.12067	19591
1.12133	19585
1.12200	19579
1.12267	19573
1.12333	19567
1.12400	19561
1.12467	19555
1.12533	19549
1.12600	19544
1.12667	19538
1.12733	19532
1.12800	19526
1.12867	19521
1.12933	19515
1.13000	19509
1.13067	19503
1.13133	19498
1.13200	19492
1.13267	19486
1.13333	19480
1.13400	19474
1.13467	19469
1.13533	19463
1.13600	19457
1.13667	19451
1.13733	19445
1.13800	19439
1.13867	19433
1.13933	19427
1.14000	19421
1.14067	19415
1.14133	19409
1.14200	19403
1.14267	19397
1.14333	19390
1.14400	19384
1.14467	19378
1.14533	19371
1.14600	19365
1.14667	19358
1.14733	19352
1.14800	19345
1.14867	19338
1.14933	19332
1.15000	19325
1.15067	19318
1.15133	19312
1.15200	19305
1.15267	19298
1.15333	19291
1.15400	19284
1.15467	19277
1.15533	19270
1.15600	19264
1.15667	19257
1.15733	19250
1.15800	19243
1.15867	19236
1.15933	19230
1.16000	19223
1.16067	19216
1.16133	19210
1.16200	19203
1.16267	19196
1.16333	19190
1.16400	19183
1.16467	19177
1.16533	19170
1.16600	19164
1.16667	19157
1.16733	19151
1.16800	19144
1.16867	19138
1.16933	19131
1.17000	19125
1.17067	19119
1.17133	19112
1.17200	19106
1.17267	19100
1.17333	19094
1.17400	19088
1.17467	19082
1.17533	19076
1.17600	19070
1.17667	19064
1.17733	19058
1.17800	19053
1.17867	19047
1.17933	19041
1.18000	19036
1.18067	19030
1.18133	19025
1.18200	19020
1.18267	19015
1.18333	19009
1.18400	19004
1.18467	18999
1.18533	18994
1.18600	18989
1.18667	18985
1.18733	18980
1.18800	18975
1.18867	18971
1.18933	18966
1.19000	18962
1.19067	18958
1.19133	18954
1.19200	18950
1.19267	18946
1.19333	18943
1.19400	18939
1.19467	18936
1.19533	18933
1.19600	18930
1.19667	18927
1.19733	18924
1.19800	18921
1.19867	18918
1.19933	18916
1.20000	18914
1.20067	18911
1.20133	18909
1.20200	18907
1.20267	18905
1.20333	18903
1.20400	18901
1.20467	18900
1.20533	18898
1.20600	18897
1.20667	18895
1.20733	18894
1.20800	18893
1.20867	18892
1.20933	18891
1.21000	18890
1.21067	18890
1.21133	18889
1.21200	18889
1.21267	18888
1.21333	18888
1.21400	18888
1.21467	18888
1.21533	18888
1.21600	18889
1.21667	18889
1.21733	18889
1.21800	18890
1.21867	18890
1.21933	18891
1.22000	18891
1.22067	18892
1.22133	18893
1.22200	18894
1.22267	18895
1.22333	18896
1.22400	18897
1.22467	18898
1.22533	18899
1.22600	18900
1.22667	18901
1.22733	18902
1.22800	18903
1.22867	18905
1.22933	18906
1.23000	18907
1.23067	18909
1.23133	18911
1.23200	18912
1.23267	18914
1.23333	18916
1.23400	18918
1.23467	18920
1.23533	18922
1.23600	18924
1.23667	18926
1.23733	18929
1.23800	18931
1.23867	18934
1.23933	18937
1.24000	18940
1.24067	18943
1.24133	18946
1.24200	18950
1.24267	18954
1.24333	18958
1.24400	18962
1.24467	18967
1.24533	18972
1.24600	18977
1.24667	18983
1.24733	18989
1.24800	18995
1.24867	19002
1.24933	19009
1.25000	19017
1.25067	19025
1.25133	19034
1.25200	19043
1.25267	19052
1.25333	19062
1.25400	19072
1.25467	19083
1.25533	19094
1.25600	19106
1.25667	19117
1.25733	19129
1.25800	19142
1.25867	19154
1.25933	19167
1.26000	19180
1.26067	19193
1.26133	19205
1.26200	19218
1.26267	19231
1.26333	19243
1.26400	19255
1.26467	19267
1.26533	19279
1.26600	19291
1.26667	19302
1.26733	19312
1.26800	19322
1.26867	19332
1.26933	19341
1.27000	19350
1.27067	19358
1.27133	19365
1.27200	19372
1.27267	19378
1.27333	19384
1.27400	19389
1.27467	19394
1.27533	19398
1.27600	19401
1.27667	19403
1.27733	19405
1.27800	19407
1.27867	19407
1.27933	19408
1.28000	19407
1.28067	19406
1.28133	19405
1.28200	19403
1.28267	19400
1.28333	19397
1.28400	19394
1.28467	19390
1.28533	19386
1.28600	19381
1.28667	19376
1.28733	19371
1.28800	19365
1.28867	19359
1.28933	19352
1.29000	19346
1.29067	19339
1.29133	19331
1.29200	19324
1.29267	19316
1.29333	19308
1.29400	19300
1.29467	19292
1.29533	19283
1.29600	19275
1.29667	19266
1.29733	19257
1.29800	19248
1.29867	19239
1.29933	19230
1.30000	19220
1.30067	19211
1.30133	19201
1.30200	19191
1.30267	19182
1.30333	19172
1.30400	19162
1.30467	19152
1.30533	19142
1.30600	19131
1.30667	19121
1.30733	19111
1.30800	19100
1.30867	19090
1.30933	19079
1.31000	19069
1.31067	19058
1.31133	19047
1.31200	19036
1.31267	19025
1.31333	19014
1.31400	19003
1.31467	18992
1.31533	18981
1.31600	18970
1.31667	18959
1.31733	18947
1.31800	18936
1.31867	18924
1.31933	18913
1.32000	18901
1.32067	18890
1.32133	18878
1.32200	18867
1.32267	18855
1.32333	18843
1.32400	18832
1.32467	18820
1.32533	18809
1.32600	18797
1.32667	18786
1.32733	18774
1.32800	18763
1.32867	18752
1.32933	18740
1.33000	18729
1.33067	18718
1.33133	18707
1.33200	18695
1.33267	18684
1.33333	18673
1.33400	18662
1.33467	18651
1.33533	18640
1.33600	18629
1.33667	18618
1.33733	18607
1.33800	18596
1.33867	18586
1.33933	18575
1.34000	18565
1.34067	18554
1.34133	18544
1.34200	18534
1.34267	18523
1.34333	18513
1.34400	18503
1.34467	18493
1.34533	18483
1.34600	18474
1.34667	18464
1.34733	18454
1.34800	18445
1.34867	18435
1.34933	18426
1.35000	18416
1.35067	18407
1.35133	18398
1.35200	18389
1.35267	18379
1.35333	18370
1.35400	18362
1.35467	18353
1.35533	18344
1.35600	18336
1.35667	18327
1.35733	18319
1.35800	18310
1.35867	18302
1.35933	18294
1.36000	18286
1.36067	18277
1.36133	18269
1.36200	18261
1.36267	18253
1.36333	18246
1.36400	18238
1.36467	18230
1.36533	18223
1.36600	18215
1.36667	18208
1.36733	18200
1.36800	18193
1.36867	18186
1.36933	18179
1.37000	18172
1.37067	18165
1.37133	18158
1.37200	18151
1.37267	18144
1.37333	18137
1.37400	18131
1.37467	18124
1.37533	18117
1.37600	18111
1.37667	18105
1.37733	18098
1.37800	18092
1.37867	18086
1.37933	18080
1.38000	18074
1.38067	18067
1.38133	18061
1.38200	18056
1.38267	18050
1.38333	18044
1.38400	18038
1.38467	18033
1.38533	18027
1.38600	18022
1.38667	18016
1.38733	18011
1.38800	18006
1.38867	18001
1.38933	17996
1.39000	17991
1.39067	17986
1.39133	17981
1.39200	17976
1.39267	17971
1.39333	17966
1.39400	17962
1.39467	17957
1.39533	17952
1.39600	17947
1.39667	17943
1.39733	17938
1.39800	17933
1.39867	17928
1.39933	17924
1.40000	17919
1.40067	17914
1.40133	17909
1.40200	17905
1.40267	17900
1.40333	17895
1.40400	17890
1.40467	17886
1.40533	17881
1.40600	17876
1.40667	17871
1.40733	17867
1.40800	17862
1.40867	17857
1.40933	17852
1.41000	17847
1.41067	17842
1.41133	17837
1.41200	17832
1.41267	17827
1.41333	17822
1.41400	17817
1.41467	17812
1.41533	17807
1.41600	17802
1.41667	17797
1.41733	17792
1.41800	17787
1.41867	17782
1.41933	17777
1.42000	17772
1.42067	17768
1.42133	17763
1.42200	17758
1.42267	17753
1.42333	17748
1.42400	17743
1.42467	17739
1.42533	17734
1.42600	17729
1.42667	17725
1.42733	17720
1.42800	17716
1.42867	17711
1.42933	17707
1.43000	17703
1.43067	17698
1.43133	17694
1.43200	17690
1.43267	17686
1.43333	17682
1.43400	17679
1.43467	17675
1.43533	17671
1.43600	17668
1.43667	17665
1.43733	17661
1.43800	17658
1.43867	17655
1.43933	17652
1.44000	17649
1.44067	17647
1.44133	17644
1.44200	17642
1.44267	17639
1.44333	17637
1.44400	17635
1.44467	17633
1.44533	17632
1.44600	17630
1.44667	17628
1.44733	17627
1.44800	17625
1.44867	17624
1.44933	17623
1.45000	17622
1.45067	17620
1.45133	17619
1.45200	17618
1.45267	17617
1.45333	17616
1.45400	17615
1.45467	17614
1.45533	17613
1.45600	17612
1.45667	17610
1.45733	17609
1.45800	17607
1.45867	17606
1.45933	17604
1.46000	17602
1.46067	17601
1.46133	17599
1.46200	17597
1.46267	17594
1.46333	17592
1.46400	17590
1.46467	17587
1.46533	17585
1.46600	17582
1.46667	17579
1.46733	17576
1.46800	17573
1.46867	17570
1.46933	17567
1.47000	17563
1.47067	17560
1.47133	17556
1.47200	17552
1.47267	17549
1.47333	17545
1.47400	17540
1.47467	17536
1.47533	17532
1.47600	17528
1.47667	17523
1.47733	17519
1.47800	17514
1.47867	17510
1.47933	17505
1.48000	17501
1.48067	17496
1.48133	17491
1.48200	17486
1.48267	17481
1.48333	17477
1.48400	17472
1.48467	17467
1.48533	17462
1.48600	17457
1.48667	17452
1.48733	17447
1.48800	17443
1.48867	17438
1.48933	17433
1.49000	17429
1.49067	17424
1.49133	17419
1.49200	17415
1.49267	17410
1.49333	17406
1.49400	17402
1.49467	17397
1.49533	17393
1.49600	17389
1.49667	17384
1.49733	17380
1.49800	17376
1.49867	17372
1.49933	17367
1.50000	17363
1.50067	17359
1.50133	17355
1.50200	17351
1.50267	17347
1.50333	17343
1.50400	17339
1.50467	17335
1.50533	17331
1.50600	17327
1.50667	17323
1.50733	17319
1.50800	17315
1.50867	17311
1.50933	17307
1.51000	17303
1.51067	17299
1.51133	17295
1.51200	17291
1.51267	17287
1.51333	17283
1.51400	17279
1.51467	17275
1.51533	17271
1.51600	17267
1.51667	17262
1.51733	17258
1.51800	17254
1.51867	17249
1.51933	17245
1.52000	17241
1.52067	17236
1.52133	17232
1.52200	17227
1.52267	17223
1.52333	17218
1.52400	17214
1.52467	17209
1.52533	17204
1.52600	17200
1.52667	17195
1.52733	17190
1.52800	17186
1.52867	17181
1.52933	17177
1.53000	17172
1.53067	17167
1.53133	17163
1.53200	17158
1.53267	17153
1.53333	17149
1.53400	17144
1.53467	17139
1.53533	17135
1.53600	17130
1.53667	17125
1.53733	17121
1.53800	17116
1.53867	17112
1.53933	17107
1.54000	17103
1.54067	17098
1.54133	17094
1.54200	17089
1.54267	17085
1.54333	17080
1.54400	17076
1.54467	17071
1.54533	17067
1.54600	17063
1.54667	17059
1.54733	17054
1.54800	17050
1.54867	17046
1.54933	17042
1.55000	17038
1.55067	17034
1.55133	17029
1.55200	17025
1.55267	17021
1.55333	17017
1.55400	17013
1.55467	17009
1.55533	17004
1.55600	17000
1.55667	16996
1.55733	16992
1.55800	16988
1.55867	16984
1.55933	16980
1.56000	16976
1.56067	16972
1.56133	16967
1.56200	16963
1.56267	16959
1.56333	16955
1.56400	16951
1.56467	16948
1.56533	16944
1.56600	16940
1.56667	16936
1.56733	16932
1.56800	16928
1.56867	16925
1.56933	16921
1.57000	16917
1.57067	16913
1.57133	16910
1.57200	16906
1.57267	16902
1.57333	16899
1.57400	16895
1.57467	16891
1.57533	16888
1.57600	16884
1.57667	16881
1.57733	16877
1.57800	16873
1.57867	16870
1.57933	16866
1.58000	16863
1.58067	16859
1.58133	16856
1.58200	16852
1.58267	16849
1.58333	16845
1.58400	16842
1.58467	16838
1.58533	16835
1.58600	16832
1.58667	16828
1.58733	16825
1.58800	16822
1.58867	16819
1.58933	16815
1.59000	16812
1.59067	16809
1.59133	16806
1.59200	16802
1.59267	16799
1.59333	16796
1.59400	16793
1.59467	16790
1.59533	16787
1.59600	16784
1.59667	16781
1.59733	16778
1.59800	16775
1.59867	16773
1.59933	16770
1.60000	16767
1.60067	16764
1.60133	16761
1.60200	16759
1.60267	16756
1.60333	16753
1.60400	16750
1.60467	16747
1.60533	16744
1.60600	16741
1.60667	16739
1.60733	16736
1.60800	16733
1.60867	16730
1.60933	16727
1.61000	16724
1.61067	16722
1.61133	16719
1.61200	16716
1.61267	16713
1.61333	16710
1.61400	16708
1.61467	16705
1.61533	16702
1.61600	16700
1.61667	16697
1.61733	16694
1.61800	16691
1.61867	16689
1.61933	16686
1.62000	16683
1.62067	16680
1.62133	16678
1.62200	16675
1.62267	16672
1.62333	16670
1.62400	16667
1.62467	16665
1.62533	16662
1.62600	16659
1.62667	16657
1.62733	16654
1.62800	16652
1.62867	16649
1.62933	16647
1.63000	16645
1.63067	16642
1.63133	16640
1.63200	16637
1.63267	16635
1.63333	16633
1.63400	16630
1.63467	16628
1.63533	16626
1.63600	16623
1.63667	16621
1.63733	16619
1.63800	16617
1.63867	16615
1.63933	16612
1.64000	16610
1.64067	16608
1.64133	16606
1.64200	16604
1.64267	16602
1.64333	16600
1.64400	16598
1.64467	16596
1.64533	16594
1.64600	16592
1.64667	16590
1.64733	16588
1.64800	16586
1.64867	16583
1.64933	16581
1.65000	16579
1.65067	16577
1.65133	16575
1.65200	16572
1.65267	16570
1.65333	16568
1.65400	16566
1.65467	16563
1.65533	16561
1.65600	16559
1.65667	16557
1.65733	16554
1.65800	16552
1.65867	16550
1.65933	16547
1.66000	16545
1.66067	16543
1.66133	16541
1.66200	16538
1.66267	16536
1.66333	16534
1.66400	16532
1.66467	16529
1.66533	16527
1.66600	16525
1.66667	16523
1.66733	16520
1.66800	16518
1.66867	16516
1.66933	16513
1.67000	16511
1.67067	16509
1.67133	16506
1.67200	16504
1.67267	16501
1.67333	16499
1.67400	16496
1.67467	16493
1.67533	16491
1.67600	16488
1.67667	16485
1.67733	16483
1.67800	16480
1.67867	16477
1.67933	16474
1.68000	16471
1.68067	16468
1.68133	16465
1.68200	16462
1.68267	16459
1.68333	16456
1.68400	16453
1.68467	16450
1.68533	16447
1.68600	16444
1.68667	16440
1.68733	16437
1.68800	16434
1.68867	16431
1.68933	16427
1.69000	16424
1.69067	16421
1.69133	16417
1.69200	16414
1.69267	16411
1.69333	16408
1.69400	16404
1.69467	16401
1.69533	16397
1.69600	16394
1.69667	16390
1.69733	16387
1.69800	16383
1.69867	16380
1.69933	16376
1.70000	16373
1.70067	16369
1.70133	16365
1.70200	16362
1.70267	16358
1.70333	16355
1.70400	16351
1.70467	16347
1.70533	16344
1.70600	16340
1.70667	16336
1.70733	16333
1.70800	16329
1.70867	16325
1.70933	16322
1.71000	16318
1.71067	16315
1.71133	16311
1.71200	16308
1.71267	16305
1.71333	16302
1.71400	16299
1.71467	16297
1.71533	16294
1.71600	16292
1.71667	16291
1.71733	16290
1.71800	16289
1.71867	16290
1.71933	16291
1.72000	16294
1.72067	16298
1.72133	16304
1.72200	16312
1.72267	16323
1.72333	16337
1.72400	16355
1.72467	16378
1.72533	16407
1.72600	16443
1.72667	16487
1.72733	16542
1.72800	16608
1.72867	16689
1.72933	16786
1.73000	16903
1.73067	17042
1.73133	17208
1.73200	17406
1.73267	17640
1.73333	17915
1.73400	18237
1.73467	18613
1.73533	19050
1.73600	19556
1.73667	20139
1.73733	20809
1.73800	21578
1.73867	22456
1.73933	23455
1.74000	24589
1.74067	25869
1.74133	27312
1.74200	28931
1.74267	30746
1.74333	32774
1.74400	35034
1.74467	37547
1.74533	40332
1.74600	43409
1.74667	46800
1.74733	50525
1.74800	54606
1.74867	59061
1.74933	63913
1.75000	69183
1.75067	74895
1.75133	81069
1.75200	87729
1.75267	94895
1.75333	102587
1.75400	110823
1.75467	119620
1.75533	128997
1.75600	138972
1.75667	149564
1.75733	160787
1.75800	172657
1.75867	185186
1.75933	198390
1.76000	212279
1.76067	226858
1.76133	242130
1.76200	258093
1.76267	274746
1.76333	292086
1.76400	310109
1.76467	328806
1.76533	348166
1.76600	368176
1.76667	388820
1.76733	410073
1.76800	431908
1.76867	454288
1.76933	477171
1.77000	500519
1.77067	524288
1.77133	548431
1.77200	572889
1.77267	597588
1.77333	622445
1.77400	647364
1.77467	672246
1.77533	696987
1.77600	721481
1.77667	745616
1.77733	769273
1.77800	792329
1.77867	814663
1.77933	836162
1.78000	856719
1.78067	876236
1.78133	894621
1.78200	911789
1.78267	927666
1.78333	942190
1.78400	955317
1.78467	967018
1.78533	977276
1.78600	986087
1.78667	993461
1.78733	999413
1.78800	1003975
1.78867	1007181
1.78933	1009077
1.79000	1009710
1.79067	1009136
1.79133	1007408
1.79200	1004589
1.79267	1000737
1.79333	995915
1.79400	990183
1.79467	983604
1.79533	976236
1.79600	968138
1.79667	959366
1.79733	949975
1.79800	940018
1.79867	929545
1.79933	918605
1.80000	907242
1.80067	895500
1.80133	883422
1.80200	871046
1.80267	858408
1.80333	845545
1.80400	832488
1.80467	819268
1.80533	805915
1.80600	792456
1.80667	778916
1.80733	765318
1.80800	751686
1.80867	738039
1.80933	724397
1.81000	710778
1.81067	697199
1.81133	683674
1.81200	670219
1.81267	656846
1.81333	643567
1.81400	630393
1.81467	617335
1.81533	604402
1.81600	591603
1.81667	578944
1.81733	566434
1.81800	554078
1.81867	541882
1.81933	529851
1.82000	517989
1.82067	506301
1.82133	494789
1.82200	483457
1.82267	472306
1.82333	461340
1.82400	450559
1.82467	439965
1.82533	429559
1.82600	419341
1.82667	409312
1.82733	399472
1.82800	389820
1.82867	380356
1.82933	371080
1.83000	361990
1.83067	353086
1.83133	344366
1.83200	335829
1.83267	327473
1.83333	319296
1.83400	311297
1.83467	303474
1.83533	295824
1.83600	288347
1.83667	281039
1.83733	273898
1.83800	266922
1.83867	260108
1.83933	253455
1.84000	246959
1.84067	240619
1.84133	234431
1.84200	228393
1.84267	222502
1.84333	216757
1.84400	211153
1.84467	205690
1.84533	200363
1.84600	195171
1.84667	190110
1.84733	185179
1.84800	180374
1.84867	175694
1.84933	171135
1.85000	166694
1.85067	162371
1.85133	158161
1.85200	154062
1.85267	150073
1.85333	146190
1.85400	142411
1.85467	138734
1.85533	135157
1.85600	131677
1.85667	128292
1.85733	124999
1.85800	121797
1.85867	118684
1.85933	115656
1.86000	112713
1.86067	109851
1.86133	107070
1.86200	104367
1.86267	101739
1.86333	99186
1.86400	96705
1.86467	94295
1.86533	91953
1.86600	89678
1.86667	87468
1.86733	85321
1.86800	83236
1.86867	81211
1.86933	79245
1.87000	77335
1.87067	75481
1.87133	73681
1.87200	71933
1.87267	70236
1.87333	68589
1.87400	66990
1.87467	65438
1.87533	63931
1.87600	62469
1.87667	61050
1.87733	59672
1.87800	58335
1.87867	57038
1.87933	55779
1.88000	54557
1.88067	53372
1.88133	52222
1.88200	51106
1.88267	50024
1.88333	48974
1.88400	47955
1.88467	46966
1.88533	46008
1.88600	45077
1.88667	44175
1.88733	43300
1.88800	42452
1.88867	41628
1.88933	40830
1.89000	40056
1.89067	39305
1.89133	38578
1.89200	37872
1.89267	37188
1.89333	36524
1.89400	35881
1.89467	35257
1.89533	34653
1.89600	34067
1.89667	33499
1.89733	32948
1.89800	32415
1.89867	31898
1.89933	31397
1.90000	30911
1.90067	30440
1.90133	29983
1.90200	29541
1.90267	29112
1.90333	28697
1.90400	28294
1.90467	27904
1.90533	27526
1.90600	27160
1.90667	26805
1.90733	26461
1.90800	26128
1.90867	25805
1.90933	25492
1.91000	25189
1.91067	24895
1.91133	24610
1.91200	24334
1.91267	24067
1.91333	23808
1.91400	23557
1.91467	23314
1.91533	23079
1.91600	22850
1.91667	22629
1.91733	22415
1.91800	22207
1.91867	22006
1.91933	21811
1.92000	21622
1.92067	21439
1.92133	21261
1.92200	21089
1.92267	20922
1.92333	20761
1.92400	20604
1.92467	20452
1.92533	20305
1.92600	20163
1.92667	20024
1.92733	19890
1.92800	19760
1.92867	19634
1.92933	19512
1.93000	19394
1.93067	19279
1.93133	19168
1.93200	19060
1.93267	18955
1.93333	18853
1.93400	18755
1.93467	18659
1.93533	18566
1.93600	18476
1.93667	18388
1.93733	18304
1.93800	18221
1.93867	18141
1.93933	18063
1.94000	17988
1.94067	17915
1.94133	17843
1.94200	17774
1.94267	17707
1.94333	17641
1.94400	17578
1.94467	17516
1.94533	17456
1.94600	17397
1.94667	17341
1.94733	17285
1.94800	17232
1.94867	17180
1.94933	17129
1.95000	17079
1.95067	17031
1.95133	16984
1.95200	16938
1.95267	16894
1.95333	16850
1.95400	16808
1.95467	16767
1.95533	16727
1.95600	16688
1.95667	16651
1.95733	16614
1.95800	16578
1.95867	16543
1.95933	16509
1.96000	16476
1.96067	16444
1.96133	16412
1.96200	16382
1.96267	16352
1.96333	16322
1.96400	16294
1.96467	16266
1.96533	16239
1.96600	16212
1.96667	16186
1.96733	16161
1.96800	16136
1.96867	16112
1.96933	16089
1.97000	16065
1.97067	16043
1.97133	16021
1.97200	15999
1.97267	15978
1.97333	15957
1.97400	15937
1.97467	15917
1.97533	15898
1.97600	15879
1.97667	15860
1.97733	15842
1.97800	15824
1.97867	15806
1.97933	15789
1.98000	15773
1.98067	15756
1.98133	15740
1.98200	15725
1.98267	15709
1.98333	15694
1.98400	15680
1.98467	15665
1.98533	15651
1.98600	15637
1.98667	15624
1.98733	15610
1.98800	15597
1.98867	15585
1.98933	15572
1.99000	15560
1.99067	15548
1.99133	15536
1.99200	15524
1.99267	15513
1.99333	15502
1.99400	15491
1.99467	15480
1.99533	15469
1.99600	15459
1.99667	15448
1.99733	15438
1.99800	15428
1.99867	15418
1.99933	15408
2.00000	15398
2.00067	15389
2.00133	15379
2.00200	15370
2.00267	15360
2.00333	15351
2.00400	15342
2.00467	15333
2.00533	15324
2.00600	15315
2.00667	15306
2.00733	15297
2.00800	15289
2.00867	15280
2.00933	15271
2.01000	15263
2.01067	15254
2.01133	15246
2.01200	15237
2.01267	15229
2.01333	15221
2.01400	15212
2.01467	15204
2.01533	15196
2.01600	15188
2.01667	15180
2.01733	15172
2.01800	15164
2.01867	15156
2.01933	15148
2.02000	15141
2.02067	15133
2.02133	15125
2.02200	15117
2.02267	15110
2.02333	15102
2.02400	15094
2.02467	15086
2.02533	15079
2.02600	15071
2.02667	15064
2.02733	15056
2.02800	15049
2.02867	15041
2.02933	15034
2.03000	15026
2.03067	15018
2.03133	15011
2.03200	15004
2.03267	14996
2.03333	14989
2.03400	14981
2.03467	14974
2.03533	14967
2.03600	14960
2.03667	14952
2.03733	14945
2.03800	14938
2.03867	14931
2.03933	14924
2.04000	14917
2.04067	14910
2.04133	14904
2.04200	14897
2.04267	14890
2.04333	14884
2.04400	14877
2.04467	14870
2.04533	14864
2.04600	14857
2.04667	14851
2.04733	14844
2.04800	14838
2.04867	14832
2.04933	14826
2.05000	14819
2.05067	14813
2.05133	14807
2.05200	14801
2.05267	14795
2.05333	14789
2.05400	14783
2.05467	14777
2.05533	14771
2.05600	14765
2.05667	14760
2.05733	14754
2.05800	14748
2.05867	14742
2.05933	14737
2.06000	14731
2.06067	14725
2.06133	14720
2.06200	14714
2.06267	14709
2.06333	14703
2.06400	14698
2.06467	14693
2.06533	14687
2.06600	14682
2.06667	14677
2.06733	14672
2.06800	14667
2.06867	14661
2.06933	14656
2.07000	14651
2.07067	14646
2.07133	14641
2.07200	14636
2.07267	14631
2.07333	14625
2.07400	14620
2.07467	14615
2.07533	14610
2.07600	14605
2.07667	14599
2.07733	14594
2.07800	14589
2.07867	14584
2.07933	14579
2.08000	14573
2.08067	14568
2.08133	14563
2.08200	14558
2.08267	14553
2.08333	14548
2.08400	14543
2.08467	14538
2.08533	14533
2.08600	14528
2.08667	14524
2.08733	14519
2.08800	14514
2.08867	14509
2.08933	14504
2.09000	14500
2.09067	14495
2.09133	14490
2.09200	14485
2.09267	14481
2.09333	14476
2.09400	14471
2.09467	14467
2.09533	14462
2.09600	14458
2.09667	14453
2.09733	14449
2.09800	14444
2.09867	14440
2.09933	14435
2.10000	14431
2.10067	14426
2.10133	14422
2.10200	14417
2.10267	14413
2.10333	14408
2.10400	14404
2.10467	14399
2.10533	14395
2.10600	14390
2.10667	14386
2.10733	14382
2.10800	14377
2.10867	14373
2.10933	14368
2.11000	14364
2.11067	14360
2.11133	14355
2.11200	14351
2.11267	14346
2.11333	14342
2.11400	14338
2.11467	14333
2.11533	14329
2.11600	14325
2.11667	14321
2.11733	14316
2.11800	14312
2.11867	14308
2.11933	14303
2.12000	14299
2.12067	14294
2.12133	14290
2.12200	14286
2.12267	14281
2.12333	14277
2.12400	14272
2.12467	14268
2.12533	14263
2.12600	14259
2.12667	14254
2.12733	14250
2.12800	14245
2.12867	14241
2.12933	14237
2.13000	14232
2.13067	14228
2.13133	14224
2.13200	14219
2.13267	14215
2.13333	14211
2.13400	14207
2.13467	14202
2.13533	14198
2.13600	14194
2.13667	14190
2.13733	14185
2.13800	14181
2.13867	14177
2.13933	14173
2.14000	14169
2.14067	14165
2.14133	14161
2.14200	14157
2.14267	14153
2.14333	14149
2.14400	14145
2.14467	14141
2.14533	14137
2.14600	14133
2.14667	14129
2.14733	14125
2.14800	14121
2.14867	14117
2.14933	14113
2.15000	14109
2.15067	14105
2.15133	14101
2.15200	14097
2.15267	14093
2.15333	14089
2.15400	14084
2.15467	14080
2.15533	14076
2.15600	14072
2.15667	14068
2.15733	14064
2.15800	14059
2.15867	14055
2.15933	14051
2.16000	14047
2.16067	14043
2.16133	14038
2.16200	14034
2.16267	14030
2.16333	14026
2.16400	14022
2.16467	14017
2.16533	14013
2.16600	14009
2.16667	14005
2.16733	14001
2.16800	13996
2.16867	13992
2.16933	13988
2.17000	13984
2.17067	13980
2.17133	13976
2.17200	13972
2.17267	13968
2.17333	13964
2.17400	13960
2.17467	13956
2.17533	13951
2.17600	13947
2.17667	13943
2.17733	13939
2.17800	13935
2.17867	13931
2.17933	13927
2.18000	13923
2.18067	13919
2.18133	13915
2.18200	13911
2.18267	13907
2.18333	13903
2.18400	13899
2.18467	13895
2.18533	13891
2.18600	13887
2.18667	13883
2.18733	13879
2.18800	13876
2.18867	13872
2.18933	13868
2.19000	13864
2.19067	13861
2.19133	13857
2.19200	13853
2.19267	13850
2.19333	13846
2.19400	13843
2.19467	13839
2.19533	13836
2.19600	13832
2.19667	13829
2.19733	13825
2.19800	13821
2.19867	13818
2.19933	13814
2.20000	13811
2.20067	13808
2.20133	13804
2.20200	13801
2.20267	13798
2.20333	13794
2.20400	13791
2.20467	13788
2.20533	13785
2.20600	13782
2.20667	13779
2.20733	13777
2.20800	13774
2.20867	13772
2.20933	13769
2.21000	13767
2.21067	13765
2.21133	13763
2.21200	13761
2.21267	13759
2.21333	13758
2.21400	13756
2.21467	13755
2.21533	13754
2.21600	13753
2.21667	13752
2.21733	13751
2.21800	13751
2.21867	13750
2.21933	13750
2.22000	13750
2.22067	13749
2.22133	13749
2.22200	13749
2.22267	13749
2.22333	13749
2.22400	13749
2.22467	13749
2.22533	13749
2.22600	13749
2.22667	13749
2.22733	13748
2.22800	13748
2.22867	13748
2.22933	13747
2.23000	13747
2.23067	13746
2.23133	13746
2.23200	13745
2.23267	13744
2.23333	13743
2.23400	13742
2.23467	13741
2.23533	13740
2.23600	13739
2.23667	13737
2.23733	13736
2.23800	13734
2.23867	13733
2.23933	13731
2.24000	13729
2.24067	13727
2.24133	13725
2.24200	13723
2.24267	13720
2.24333	13718
2.24400	13715
2.24467	13713
2.24533	13710
2.24600	13707
2.24667	13704
2.24733	13701
2.24800	13699
2.24867	13696
2.24933	13692
2.25000	13689
2.25067	13686
2.25133	13683
2.25200	13680
2.25267	13677
2.25333	13674
2.25400	13670
2.25467	13667
2.25533	13664
2.25600	13661
2.25667	13658
2.25733	13654
2.25800	13651
2.25867	13648
2.25933	13645
2.26000	13641
2.26067	13638
2.26133	13635
2.26200	13631
2.26267	13628
2.26333	13624
2.26400	13621
2.26467	13617
2.26533	13613
2.26600	13609
2.26667	13606
2.26733	13602
2.26800	13598
2.26867	13593
2.26933	13589
2.27000	13585
2.27067	13581
2.27133	13577
2.27200	13572
2.27267	13568
2.27333	13563
2.27400	13559
2.27467	13554
2.27533	13550
2.27600	13545
2.27667	13541
2.27733	13536
2.27800	13532
2.27867	13527
2.27933	13522
2.28000	13518
2.28067	13513
2.28133	13508
2.28200	13504
2.28267	13499
2.28333	13494
2.28400	13489
2.28467	13485
2.28533	13480
2.28600	13475
2.28667	13470
2.28733	13466
2.28800	13461
2.28867	13456
2.28933	13451
2.29000	13446
2.29067	13442
2.29133	13437
2.29200	13432
2.29267	13428
2.29333	13423
2.29400	13419
2.29467	13414
2.29533	13410
2.29600	13405
2.29667	13401
2.29733	13396
2.29800	13392
2.29867	13388
2.29933	13383
2.30000	13379
2.30067	13375
2.30133	13371
2.30200	13367
2.30267	13363
2.30333	13359
2.30400	13355
2.30467	13351
2.30533	13348
2.30600	13344
2.30667	13340
2.30733	13337
2.30800	13333
2.30867	13330
2.30933	13326
2.31000	13323
2.31067	13320
2.31133	13316
2.31200	13313
2.31267	13310
2.31333	13306
2.31400	13303
2.31467	13300
2.31533	13297
2.31600	13294
2.31667	13291
2.31733	13288
2.31800	13285
2.31867	13282
2.31933	13279
2.32000	13276
2.32067	13273
2.32133	13270
2.32200	13267
2.32267	13265
2.32333	13262
2.32400	13259
2.32467	13256
2.32533	13253
2.32600	13250
2.32667	13248
2.32733	13245
2.32800	13242
2.32867	13239
2.32933	13237
2.33000	13234
2.33067	13231
2.33133	13229
2.33200	13226
2.33267	13224
2.33333	13222
2.33400	13219
2.33467	13217
2.33533	13214
2.33600	13212
2.33667	13210
2.33733	13207
2.33800	13205
2.33867	13203
2.33933	13201
2.34000	13198
2.34067	13196
2.34133	13194
2.34200	13192
2.34267	13190
2.34333	13188
2.34400	13186
2.34467	13184
2.34533	13182
2.34600	13180
2.34667	13179
2.34733	13177
2.34800	13175
2.34867	13173
2.34933	13172
2.35000	13170
2.35067	13168
2.35133	13167
2.35200	13165
2.35267	13163
2.35333	13162
2.35400	13160
2.35467	13158
2.35533	13157
2.35600	13155
2.35667	13153
2.35733	13152
2.35800	13150
2.35867	13149
2.35933	13147
2.36000	13145
2.36067	13144
2.36133	13142
2.36200	13141
2.36267	13139
2.36333	13138
2.36400	13136
2.36467	13134
2.36533	13133
2.36600	13131
2.36667	13129
2.36733	13127
2.36800	13125
2.36867	13123
2.36933	13121
2.37000	13119
2.37067	13117
2.37133	13115
2.37200	13112
2.37267	13110
2.37333	13108
2.37400	13105
2.37467	13103
2.37533	13101
2.37600	13098
2.37667	13095
2.37733	13093
2.37800	13090
2.37867	13088
2.37933	13085
2.38000	13082
2.38067	13080
2.38133	13077
2.38200	13074
2.38267	13072
2.38333	13069
2.38400	13066
2.38467	13063
2.38533	13061
2.38600	13058
2.38667	13055
2.38733	13053
2.38800	13050
2.38867	13047
2.38933	13045
2.39000	13042
2.39067	13039
2.39133	13036
2.39200	13033
2.39267	13031
2.39333	13028
2.39400	13025
2.39467	13022
2.39533	13020
2.39600	13017
2.39667	13014
2.39733	13011
2.39800	13009
2.39867	13006
2.39933	13003
2.40000	13000
2.40067	12997
2.40133	12994
2.40200	12992
2.40267	12989
2.40333	12986
2.40400	12983
2.40467	12980
2.40533	12977
2.40600	12974
2.40667	12971
2.40733	12968
2.40800	12966
2.40867	12963
2.40933	12960
2.41000	12957
2.41067	12954
2.41133	12951
2.41200	12948
2.41267	12946
2.41333	12943
2.41400	12940
2.41467	12937
2.41533	12934
2.41600	12931
2.41667	12929
2.41733	12926
2.41800	12923
2.41867	12920
2.41933	12917
2.42000	12914
2.42067	12911
2.42133	12909
2.42200	12906
2.42267	12903
2.42333	12900
2.42400	12897
2.42467	12894
2.42533	12891
2.42600	12888
2.42667	12885
2.42733	12882
2.42800	12879
2.42867	12876
2.42933	12873
2.43000	12870
2.43067	12866
2.43133	12863
2.43200	12860
2.43267	12857
2.43333	12854
2.43400	12851
2.43467	12848
2.43533	12845
2.43600	12842
2.43667	12838
2.43733	12835
2.43800	12832
2.43867	12829
2.43933	12825
2.44000	12822
2.44067	12819
2.44133	12815
2.44200	12812
2.44267	12809
2.44333	12805
2.44400	12802
2.44467	12798
2.44533	12795
2.44600	12791
2.44667	12788
2.44733	12784
2.44800	12780
2.44867	12777
2.44933	12773
2.45000	12769
2.45067	12765
2.45133	12761
2.45200	12757
2.45267	12753
2.45333	12750
2.45400	12746
2.45467	12742
2.45533	12738
2.45600	12733
2.45667	12729
2.45733	12725
2.45800	12721
2.45867	12717
2.45933	12713
2.46000	12709
2.46067	12705
2.46133	12701
2.46200	12697
2.46267	12693
2.46333	12689
2.46400	12685
2.46467	12680
2.46533	12676
2.46600	12672
2.46667	12668
2.46733	12663
2.46800	12659
2.46867	12655
2.46933	12651
2.47000	12646
2.47067	12642
2.47133	12638
2.47200	12634
2.47267	12630
2.47333	12626
2.47400	12622
2.47467	12618
2.47533	12613
2.47600	12609
2.47667	12605
2.47733	12601
2.47800	12597
2.47867	12593
2.47933	12589
2.48000	12585
2.48067	12581
2.48133	12577
2.48200	12573
2.48267	12569
2.48333	12565
2.48400	12560
2.48467	12556
2.48533	12552
2.48600	12548
2.48667	12544
2.48733	12540
2.48800	12535
2.48867	12531
2.48933	12527
2.49000	12523
2.49067	12519
2.49133	12514
2.49200	12510
2.49267	12506
2.49333	12502
2.49400	12498
2.49467	12494
2.49533	12490
2.49600	12485
2.49667	12481
2.49733	12477
2.49800	12473
2.49867	12469
2.49933	12465
2.50000	12461
2.50067	12457
2.50133	12453
2.50200	12449
2.50267	12445
2.50333	12441
2.50400	12437
2.50467	12434
2.50533	12430
2.50600	12426
2.50667	12422
2.50733	12418
2.50800	12414
2.50867	12410
2.50933	12406
2.51000	12402
2.51067	12398
2.51133	12394
2.51200	12390
2.51267	12386
2.51333	12381
2.51400	12377
2.51467	12373
2.51533	12369
2.51600	12365
2.51667	12361
2.51733	12357
2.51800	12353
2.51867	12349
2.51933	12345
2.52000	12341
2.52067	12337
2.52133	12333
2.52200	12328
2.52267	12324
2.52333	12320
2.52400	12316
2.52467	12311
2.52533	12307
2.52600	12303
2.52667	12299
2.52733	12294
2.52800	12290
2.52867	12286
2.52933	12281
2.53000	12277
2.53067	12273
2.53133	12268
2.53200	12264
2.53267	12260
2.53333	12255
2.53400	12251
2.53467	12247
2.53533	12242
2.53600	12238
2.53667	12234
2.53733	12230
2.53800	12225
2.53867	12221
2.53933	12217
2.54000	12213
2.54067	12208
2.54133	12204
2.54200	12200
2.54267	12195
2.54333	12191
2.54400	12187
2.54467	12182
2.54533	12178
2.54600	12174
2.54667	12169
2.54733	12165
2.54800	12161
2.54867	12156
2.54933	12152
2.55000	12148
2.55067	12144
2.55133	12139
2.55200	12135
2.55267	12131
2.55333	12127
2.55400	12122
2.55467	12118
2.55533	12114
2.55600	12110
2.55667	12106
2.55733	12101
2.55800	12097
2.55867	12093
2.55933	12089
2.56000	12085
2.56067	12081
2.56133	12077
2.56200	12073
2.56267	12069
2.56333	12065
2.56400	12062
2.56467	12058
2.56533	12054
2.56600	12050
2.56667	12047
2.56733	12043
2.56800	12039
2.56867	12036
2.56933	12032
2.57000	12029
2.57067	12025
2.57133	12022
2.57200	12019
2.57267	12015
2.57333	12012
2.57400	12008
2.57467	12005
2.57533	12002
2.57600	11998
2.57667	11995
2.57733	11992
2.57800	11988
2.57867	11985
2.57933	11982
2.58000	11978
2.58067	11975
2.58133	11972
2.58200	11968
2.58267	11965
2.58333	11962
2.58400	11959
2.58467	11955
2.58533	11952
2.58600	11949
2.58667	11946
2.58733	11942
2.58800	11939
2.58867	11936
2.58933	11933
2.59000	11930
2.59067	11927
2.59133	11924
2.59200	11921
2.59267	11918
2.59333	11915
2.59400	11912
2.59467	11909
2.59533	11906
2.59600	11903
2.59667	11900
2.59733	11897
2.59800	11894
2.59867	11891
2.59933	11888
2.60000	11885
2.60067	11882
2.60133	11879
2.60200	11876
2.60267	11873
2.60333	11871
2.60400	11868
2.60467	11865
2.60533	11863
2.60600	11860
2.60667	11857
2.60733	11854
2.60800	11851
2.60867	11849
2.60933	11846
2.61000	11843
2.61067	11840
2.61133	11837
2.61200	11834
2.61267	11831
2.61333	11829
2.61400	11826
2.61467	11823
2.61533	11820
2.61600	11817
2.61667	11814
2.61733	11811
2.61800	11808
2.61867	11805
2.61933	11802
2.62000	11799
2.62067	11796
2.62133	11793
2.62200	11790
2.62267	11787
2.62333	11784
2.62400	11780
2.62467	11777
2.62533	11774
2.62600	11771
2.62667	11768
2.62733	11765
2.62800	11762
2.62867	11758
2.62933	11755
2.63000	11752
2.63067	11749
2.63133	11746
2.63200	11742
2.63267	11739
2.63333	11736
2.63400	11732
2.63467	11729
2.63533	11726
2.63600	11722
2.63667	11719
2.63733	11715
2.63800	11712
2.63867	11708
2.63933	11705
2.64000	11701
2.64067	11698
2.64133	11694
2.64200	11690
2.64267	11687
2.64333	11683
2.64400	11679
2.64467	11675
2.64533	11672
2.64600	11668
2.64667	11664
2.64733	11661
2.64800	11657
2.64867	11653
2.64933	11650
2.65000	11646
2.65067	11643
2.65133	11639
2.65200	11635
2.65267	11632
2.65333	11628
2.65400	11624
2.65467	11620
2.65533	11617
2.65600	11613
2.65667	11609
2.65733	11605
2.65800	11602
2.65867	11598
2.65933	11594
2.66000	11590
2.66067	11587
2.66133	11583
2.66200	11579
2.66267	11576
2.66333	11572
2.66400	11568
2.66467	11565
2.66533	11561
2.66600	11557
2.66667	11554
2.66733	11550
2.66800	11546
2.66867	11542
2.66933	11538
2.67000	11535
2.67067	11531
2.67133	11527
2.67200	11524
2.67267	11520
2.67333	11516
2.67400	11512
2.67467	11509
2.67533	11505
2.67600	11501
2.67667	11498
2.67733	11494
2.67800	11490
2.67867	11486
2.67933	11483
2.68000	11479
2.68067	11475
2.68133	11472
2.68200	11468
2.68267	11464
2.68333	11461
2.68400	11457
2.68467	11453
2.68533	11450
2.68600	11446
2.68667	11442
2.68733	11439
2.68800	11435
2.68867	11431
2.68933	11428
2.69000	11424
2.69067	11421
2.69133	11417
2.69200	11414
2.69267	11410
2.69333	11407
2.69400	11403
2.69467	11400
2.69533	11396
2.69600	11393
2.69667	11389
2.69733	11386
2.69800	11383
2.69867	11379
2.69933	11376
2.70000	11372
2.70067	11369
2.70133	11366
2.70200	11362
2.70267	11359
2.70333	11356
2.70400	11353
2.70467	11349
2.70533	11346
2.70600	11343
2.70667	11340
2.70733	11336
2.70800	11333
2.70867	11330
2.70933	11327
2.71000	11323
2.71067	11320
2.71133	11317
2.71200	11314
2.71267	11311
2.71333	11308
2.71400	11304
2.71467	11301
2.71533	11298
2.71600	11295
2.71667	11292
2.71733	11289
2.71800	11286
2.71867	11283
2.71933	11280
2.72000	11277
2.72067	11274
2.72133	11271
2.72200	11268
2.72267	11265
2.72333	11262
2.72400	11259
2.72467	11256
2.72533	11253
2.72600	11250
2.72667	11247
2.72733	11244
2.72800	11241
2.72867	11238
2.72933	11235
2.73000	11233
2.73067	11230
2.73133	11227
2.73200	11224
2.73267	11221
2.73333	11218
2.73400	11216
2.73467	11213
2.73533	11210
2.73600	11207
2.73667	11204
2.73733	11202
2.73800	11199
2.73867	11196
2.73933	11193
2.74000	11191
2.74067	11188
2.74133	11185
2.74200	11183
2.74267	11180
2.74333	11177
2.74400	11175
2.74467	11172
2.74533	11170
2.74600	11167
2.74667	11165
2.74733	11162
2.74800	11160
2.74867	11157
2.74933	11155
2.75000	11153
2.75067	11150
2.75133	11148
2.75200	11146
2.75267	11143
2.75333	11141
2.75400	11139
2.75467	11137
2.75533	11135
2.75600	11133
2.75667	11130
2.75733	11128
2.75800	11126
2.75867	11124
2.75933	11122
2.76000	11120
2.76067	11118
2.76133	11116
2.76200	11114
2.76267	11112
2.76333	11110
2.76400	11108
2.76467	11107
2.76533	11105
2.76600	11103
2.76667	11102
2.76733	11100
2.76800	11098
2.76867	11097
2.76933	11095
2.77000	11093
2.77067	11092
2.77133	11091
2.77200	11089
2.77267	11088
2.77333	11086
2.77400	11085
2.77467	11084
2.77533	11082
2.77600	11081
2.77667	11080
2.77733	11079
2.77800	11077
2.77867	11076
2.77933	11075
2.78000	11074
2.78067	11073
2.78133	11072
2.78200	11071
2.78267	11070
2.78333	11069
2.78400	11068
2.78467	11067
2.78533	11067
2.78600	11066
2.78667	11065
2.78733	11065
2.78800	11064
2.78867	11064
2.78933	11063
2.79000	11063
2.79067	11063
2.79133	11063
2.79200	11062
2.79267	11062
2.79333	11062
2.79400	11062
2.79467	11063
2.79533	11063
2.79600	11063
2.79667	11063
2.79733	11063
2.79800	11064
2.79867	11064
2.79933	11065
2.80000	11065
2.80067	11065
2.80133	11066
2.80200	11066
2.80267	11067
2.80333	11068
2.80400	11068
2.80467	11069
2.80533	11069
2.80600	11070
2.80667	11071
2.80733	11071
2.80800	11072
2.80867	11073
2.80933	11073
2.81000	11074
2.81067	11075
2.81133	11075
2.81200	11076
2.81267	11076
2.81333	11077
2.81400	11077
2.81467	11078
2.81533	11078
2.81600	11079
2.81667	11079
2.81733	11080
2.81800	11080
2.81867	11080
2.81933	11080
2.82000	11080
2.82067	11080
2.82133	11080
2.82200	11080
2.82267	11080
2.82333	11080
2.82400	11080
2.82467	11079
2.82533	11078
2.82600	11078
2.82667	11077
2.82733	11076
2.82800	11076
2.82867	11075
2.82933	11074
2.83000	11072
2.83067	11071
2.83133	11070
2.83200	11068
2.83267	11067
2.83333	11065
2.83400	11064
2.83467	11062
2.83533	11060
2.83600	11058
2.83667	11056
2.83733	11054
2.83800	11052
2.83867	11049
2.83933	11047
2.84000	11044
2.84067	11042
2.84133	11039
2.84200	11036
2.84267	11033
2.84333	11031
2.84400	11028
2.84467	11024
2.84533	11021
2.84600	11018
2.84667	11015
2.84733	11011
2.84800	11008
2.84867	11004
2.84933	11001
2.85000	10997
2.85067	10994
2.85133	10990
2.85200	10986
2.85267	10983
2.85333	10979
2.85400	10975
2.85467	10972
2.85533	10968
2.85600	10964
2.85667	10960
2.85733	10956
2.85800	10953
2.85867	10949
2.85933	10945
2.86000	10941
2.86067	10937
2.86133	10933
2.86200	10929
2.86267	10926
2.86333	10922
2.86400	10918
2.86467	10914
2.86533	10911
2.86600	10907
2.86667	10903
2.86733	10900
2.86800	10896
2.86867	10893
2.86933	10890
2.87000	10886
2.87067	10883
2.87133	10880
2.87200	10877
2.87267	10874
2.87333	10872
2.87400	10869
2.87467	10866
2.87533	10864
2.87600	10862
2.87667	10860
2.87733	10858
2.87800	10856
2.87867	10854
2.87933	10853
2.88000	10852
2.88067	10851
2.88133	10850
2.88200	10849
2.88267	10848
2.88333	10848
2.88400	10848
2.88467	10848
2.88533	10848
2.88600	10849
2.88667	10849
2.88733	10850
2.88800	10852
2.88867	10853
2.88933	10854
2.89000	10856
2.89067	10858
2.89133	10860
2.89200	10863
2.89267	10865
2.89333	10868
2.89400	10871
2.89467	10874
2.89533	10878
2.89600	10881
2.89667	10885
2.89733	10889
2.89800	10893
2.89867	10897
2.89933	10902
2.90000	10907
2.90067	10911
2.90133	10916
2.90200	10921
2.90267	10926
2.90333	10932
2.90400	10937
2.90467	10942
2.90533	10948
2.90600	10953
2.90667	10958
2.90733	10963
2.90800	10969
2.90867	10974
2.90933	10979
2.91000	10984
2.91067	10988
2.91133	10993
2.91200	10997
2.91267	11001
2.91333	11005
2.91400	11009
2.91467	11012
2.91533	11015
2.91600	11018
2.91667	11021
2.91733	11023
2.91800	11025
2.91867	11026
2.91933	11028
2.92000	11028
2.92067	11029
2.92133	11029
2.92200	11029
2.92267	11029
2.92333	11028
2.92400	11027
2.92467	11025
2.92533	11023
2.92600	11021
2.92667	11019
2.92733	11016
2.92800	11012
2.92867	11009
2.92933	11005
2.93000	11000
2.93067	10996
2.93133	10991
2.93200	10985
2.93267	10980
2.93333	10974
2.93400	10968
2.93467	10961
2.93533	10954
2.93600	10947
2.93667	10940
2.93733	10932
2.93800	10924
2.93867	10916
2.93933	10908
2.94000	10900
2.94067	10891
2.94133	10882
2.94200	10874
2.94267	10864
2.94333	10855
2.94400	10846
2.94467	10837
2.94533	10827
2.94600	10817
2.94667	10808
2.94733	10798
2.94800	10788
2.94867	10778
2.94933	10768
2.95000	10758
2.95067	10748
2.95133	10738
2.95200	10728
2.95267	10718
2.95333	10708
2.95400	10698
2.95467	10688
2.95533	10678
2.95600	10668
2.95667	10658
2.95733	10648
2.95800	10638
2.95867	10628
2.95933	10618
2.96000	10609
2.96067	10599
2.96133	10590
2.96200	10580
2.96267	10571
2.96333	10562
2.96400	10552
2.96467	10543
2.96533	10534
2.96600	10525
2.96667	10516
2.96733	10508
2.96800	10499
2.96867	10490
2.96933	10482
2.97000	10474
2.97067	10465
2.97133	10457
2.97200	10449
2.97267	10441
2.97333	10433
2.97400	10426
2.97467	10418
2.97533	10410
2.97600	10403
2.97667	10396
2.97733	10388
2.97800	10381
2.97867	10374
2.97933	10367
2.98000	10360
2.98067	10354
2.98133	10347
2.98200	10340
2.98267	10334
2.98333	10327
2.98400	10321
2.98467	10315
2.98533	10308
2.98600	10302
2.98667	10296
2.98733	10290
2.98800	10284
2.98867	10278
2.98933	10273
2.99000	10267
2.99067	10261
2.99133	10256
2.99200	10251
2.99267	10245
2.99333	10240
2.99400	10235
2.99467	10230
2.99533	10225
2.99600	10220
2.99667	10215
2.99733	10210
2.99800	10205
2.99867	10201
2.99933	10196
3.00000	10191
3.00067	10187
3.00133	10182
3.00200	10178
3.00267	10174
3.00333	10169
3.00400	10165
3.00467	10161
3.00533	10157
3.00600	10152
3.00667	10148
3.00733	10144
3.00800	10140
3.00867	10136
3.00933	10132
3.01000	10128
3.01067	10124
3.01133	10120
3.01200	10116
3.01267	10113
3.01333	10109
3.01400	10106
3.01467	10102
3.01533	10099
3.01600	10096
3.01667	10092
3.01733	10089
3.01800	10086
3.01867	10083
3.01933	10080
3.02000	10077
3.02067	10074
3.02133	10071
3.02200	10068
3.02267	10065
3.02333	10063
3.02400	10060
3.02467	10057
3.02533	10054
3.02600	10051
3.02667	10049
3.02733	10046
3.02800	10043
3.02867	10041
3.02933	10038
3.03000	10036
3.03067	10033
3.03133	10031
3.03200	10029
3.03267	10026
3.03333	10024
3.03400	10022
3.03467	10020
3.03533	10017
3.03600	10015
3.03667	10013
3.03733	10011
3.03800	10009
3.03867	10007
3.03933	10005
3.04000	10003
3.04067	10001
3.04133	9999
3.04200	9998
3.04267	9996
3.04333	9994
3.04400	9993
3.04467	9991
3.04533	9990
3.04600	9988
3.04667	9987
3.04733	9986
3.04800	9984
3.04867	9983
3.04933	9982
3.05000	9981
3.05067	9980
3.05133	9979
3.05200	9979
3.05267	9978
3.05333	9978
3.05400	9977
3.05467	9977
3.05533	9977
3.05600	9977
3.05667	9977
3.05733	9977
3.05800	9978
3.05867	9978
3.05933	9979
3.06000	9980
3.06067	9981
3.06133	9982
3.06200	9984
3.06267	9985
3.06333	9987
3.06400	9989
3.06467	9991
3.06533	9993
3.06600	9995
3.06667	9998
3.06733	10001
3.06800	10003
3.06867	10006
3.06933	10010
3.07000	10013
3.07067	10017
3.07133	10020
3.07200	10024
3.07267	10028
3.07333	10033
3.07400	10037
3.07467	10042
3.07533	10046
3.07600	10051
3.07667	10056
3.07733	10061
3.07800	10066
3.07867	10071
3.07933	10076
3.08000	10082
3.08067	10087
3.08133	10093
3.08200	10098
3.08267	10104
3.08333	10109
3.08400	10115
3.08467	10120
3.08533	10126
3.08600	10131
3.08667	10137
3.08733	10142
3.08800	10148
3.08867	10153
3.08933	10158
3.09000	10163
3.09067	10168
3.09133	10173
3.09200	10178
3.09267	10182
3.09333	10187
3.09400	10191
3.09467	10195
3.09533	10199
3.09600	10203
3.09667	10206
3.09733	10209
3.09800	10212
3.09867	10215
3.09933	10218
3.10000	10220
3.10067	10222
3.10133	10223
3.10200	10225
3.10267	10226
3.10333	10227
3.10400	10228
3.10467	10228
3.10533	10228
3.10600	10228
3.10667	10228
3.10733	10227
3.10800	10227
3.10867	10226
3.10933	10224
3.11000	10223
3.11067	10221
3.11133	10219
3.11200	10216
3.11267	10214
3.11333	10211
3.11400	10208
3.11467	10205
3.11533	10202
3.11600	10198
3.11667	10195
3.11733	10191
3.11800	10187
3.11867	10182
3.11933	10178
3.12000	10174
3.12067	10169
3.12133	10164
3.12200	10159
3.12267	10154
3.12333	10149
3.12400	10143
3.12467	10138
3.12533	10132
3.12600	10127
3.12667	10121
3.12733	10115
3.12800	10109
3.12867	10104
3.12933	10098
3.13000	10092
3.13067	10086
3.13133	10080
3.13200	10074
3.13267	10068
3.13333	10063
3.13400	10057
3.13467	10051
3.13533	10045
3.13600	10039
3.13667	10033
3.13733	10027
3.13800	10021
3.13867	10016
3.13933	10010
3.14000	10005
3.14067	9999
3.14133	9994
3.14200	9988
3.14267	9983
3.14333	9978
3.14400	9972
3.14467	9967
3.14533	9962
3.14600	9957
3.14667	9952
3.14733	9947
3.14800	9942
3.14867	9937
3.14933	9933
3.15000	9928
3.15067	9924
3.15133	9919
3.15200	9915
3.15267	9911
3.15333	9906
3.15400	9902
3.15467	9898
3.15533	9894
3.15600	9890
3.15667	9887
3.15733	9883
3.15800	9879
3.15867	9876
3.15933	9872
3.16000	9869
3.16067	9865
3.16133	9862
3.16200	9859
3.16267	9856
3.16333	9852
3.16400	9849
3.16467	9846
3.16533	9843
3.16600	9841
3.16667	9838
3.16733	9835
3.16800	9832
3.16867	9829
3.16933	9827
3.17000	9824
3.17067	9821
3.17133	9819
3.17200	9816
3.17267	9814
3.17333	9812
3.17400	9809
3.17467	9807
3.17533	9805
3.17600	9803
3.17667	9801
3.17733	9799
3.17800	9797
3.17867	9795
3.17933	9793
3.18000	9791
3.18067	9789
3.18133	9788
3.18200	9786
3.18267	9784
3.18333	9782
3.18400	9781
3.18467	9779
3.18533	9778
3.18600	9776
3.18667	9774
3.18733	9773
3.18800	9772
3.18867	9770
3.18933	9769
3.19000	9768
3.19067	9766
3.19133	9765
3.19200	9764
3.19267	9763
3.19333	9761
3.19400	9760
3.19467	9759
3.19533	9758
3.19600	9757
3.19667	9756
3.19733	9755
3.19800	9754
3.19867	9753
3.19933	9752
3.20000	9752
3.20067	9751
3.20133	9750
3.20200	9749
3.20267	9748
3.20333	9748
3.20400	9747
3.20467	9746
3.20533	9746
3.20600	9745
3.20667	9744
3.20733	9744
3.20800	9743
3.20867	9742
3.20933	9742
3.21000	9741
3.21067	9741
3.21133	9740
3.21200	9740
3.21267	9739
3.21333	9739
3.21400	9738
3.21467	9738
3.21533	9738
3.21600	9738
3.21667	9737
3.21733	9737
3.21800	9737
3.21867	9737
3.21933	9737
3.22000	9737
3.22067	9737
3.22133	9737
3.22200	9737
3.22267	9737
3.22333	9738
3.22400	9738
3.22467	9738
3.22533	9739
3.22600	9739
3.22667	9739
3.22733	9740
3.22800	9740
3.22867	9741
3.22933	9741
3.23000	9742
3.23067	9742
3.23133	9743
3.23200	9743
3.23267	9744
3.23333	9744
3.23400	9745
3.23467	9746
3.23533	9747
3.23600	9747
3.23667	9748
3.23733	9749
3.23800	9750
3.23867	9750
3.23933	9751
3.24000	9752
3.24067	9753
3.24133	9753
3.24200	9754
3.24267	9755
3.24333	9756
3.24400	9757
3.24467	9758
3.24533	9758
3.24600	9759
3.24667	9760
3.24733	9761
3.24800	9762
3.24867	9763
3.24933	9764
3.25000	9765
3.25067	9766
3.25133	9767
3.25200	9768
3.25267	9769
3.25333	9770
3.25400	9771
3.25467	9772
3.25533	9772
3.25600	9773
3.25667	9774
3.25733	9775
3.25800	9776
3.25867	9777
3.25933	9778
3.26000	9779
3.26067	9780
3.26133	9781
3.26200	9782
3.26267	9783
3.26333	9784
3.26400	9785
3.26467	9786
3.26533	9787
3.26600	9788
3.26667	9789
3.26733	9790
3.26800	9791
3.26867	9792
3.26933	9793
3.27000	9794
3.27067	9795
3.27133	9796
3.27200	9797
3.27267	9798
3.27333	9799
3.27400	9800
3.27467	9801
3.27533	9802
3.27600	9803
3.27667	9804
3.27733	9806
3.27800	9807
3.27867	9808
3.27933	9809
3.28000	9810
3.28067	9811
3.28133	9813
3.28200	9814
3.28267	9815
3.28333	9816
3.28400	9817
3.28467	9819
3.28533	9820
3.28600	9821
3.28667	9823
3.28733	9824
3.28800	9825
3.28867	9827
3.28933	9828
3.29000	9829
3.29067	9831
3.29133	9832
3.29200	9834
3.29267	9835
3.29333	9837
3.29400	9838
3.29467	9840
3.29533	9841
3.29600	9843
3.29667	9845
3.29733	9846
3.29800	9848
3.29867	9849
3.29933	9851
3.30000	9852
3.30067	9854
3.30133	9855
3.30200	9857
3.30267	9858
3.30333	9860
3.30400	9861
3.30467	9863
3.30533	9864
3.30600	9866
3.30667	9867
3.30733	9869
3.30800	9870
3.30867	9872
3.30933	9873
3.31000	9875
3.31067	9876
3.31133	9878
3.31200	9879
3.31267	9881
3.31333	9882
3.31400	9884
3.31467	9885
3.31533	9886
3.31600	9888
3.31667	9889
3.31733	9891
3.31800	9892
3.31867	9893
3.31933	9895
3.32000	9896
3.32067	9897
3.32133	9898
3.32200	9899
3.32267	9901
3.32333	9902
3.32400	9903
3.32467	9904
3.32533	9905
3.32600	9906
3.32667	9907
3.32733	9909
3.32800	9910
3.32867	9911
3.32933	9912
3.33000	9913
3.33067	9914
3.33133	9915
3.33200	9916
3.33267	9917
3.33333	9918
3.33400	9919
3.33467	9920
3.33533	9921
3.33600	9922
3.33667	9922
3.33733	9923
3.33800	9924
3.33867	9925
3.33933	9925
3.34000	9926
3.34067	9926
3.34133	9927
3.34200	9928
3.34267	9928
3.34333	9928
3.34400	9929
3.34467	9929
3.34533	9930
3.34600	9930
3.34667	9930
3.34733	9931
3.34800	9931
3.34867	9931
3.34933	9931
3.35000	9931
3.35067	9932
3.35133	9932
3.35200	9932
3.35267	9932
3.35333	9932
3.35400	9932
3.35467	9932
3.35533	9932
3.35600	9931
3.35667	9931
3.35733	9931
3.35800	9931
3.35867	9930
3.35933	9930
3.36000	9929
3.36067	9929
3.36133	9929
3.36200	9928
3.36267	9928
3.36333	9927
3.36400	9926
3.36467	9926
3.36533	9925
3.36600	9924
3.36667	9924
3.36733	9923
3.36800	9922
3.36867	9921
3.36933	9920
3.37000	9919
3.37067	9919
3.37133	9917
3.37200	9916
3.37267	9915
3.37333	9914
3.37400	9913
3.37467	9912
3.37533	9910
3.37600	9909
3.37667	9908
3.37733	9906
3.37800	9905
3.37867	9903
3.37933	9901
3.38000	9900
3.38067	9898
3.38133	9896
3.38200	9894
3.38267	9892
3.38333	9891
3.38400	9889
3.38467	9887
3.38533	9885
3.38600	9883
3.38667	9881
3.38733	9879
3.38800	9877
3.38867	9875
3.38933	9874
3.39000	9872
3.39067	9870
3.39133	9867
3.39200	9865
3.39267	9863
3.39333	9861
3.39400	9859
3.39467	9857
3.39533	9855
3.39600	9852
3.39667	9850
3.39733	9848
3.39800	9845
3.39867	9843
3.39933	9840
3.40000	9838
3.40067	9835
3.40133	9833
3.40200	9830
3.40267	9828
3.40333	9825
3.40400	9822
3.40467	9819
3.40533	9817
3.40600	9814
3.40667	9811
3.40733	9808
3.40800	9805
3.40867	9802
3.40933	9799
3.41000	9796
3.41067	9793
3.41133	9790
3.41200	9787
3.41267	9784
3.41333	9781
3.41400	9778
3.41467	9774
3.41533	9771
3.41600	9768
3.41667	9765
3.41733	9761
3.41800	9758
3.41867	9755
3.41933	9751
3.42000	9748
3.42067	9745
3.42133	9741
3.42200	9738
3.42267	9734
3.42333	9731
3.42400	9728
3.42467	9724
3.42533	9721
3.42600	9718
3.42667	9714
3.42733	9711
3.42800	9708
3.42867	9704
3.42933	9701
3.43000	9697
3.43067	9694
3.43133	9691
3.43200	9688
3.43267	9684
3.43333	9681
3.43400	9678
3.43467	9675
3.43533	9671
3.43600	9668
3.43667	9665
3.43733	9662
3.43800	9658
3.43867	9655
3.43933	9652
3.44000	9649
3.44067	9645
3.44133	9642
3.44200	9639
3.44267	9636
3.44333	9633
3.44400	9629
3.44467	9626
3.44533	9623
3.44600	9620
3.44667	9617
3.44733	9614
3.44800	9611
3.44867	9608
3.44933	9605
3.45000	9602
3.45067	9599
3.45133	9596
3.45200	9594
3.45267	9591
3.45333	9588
3.45400	9585
3.45467	9583
3.45533	9580
3.45600	9577
3.45667	9575
3.45733	9572
3.45800	9570
3.45867	9567
3.45933	9565
3.46000	9563
3.46067	9560
3.46133	9558
3.46200	9556
3.46267	9554
3.46333	9552
3.46400	9551
3.46467	9549
3.46533	9547
3.46600	9545
3.46667	9544
3.46733	9542
3.46800	9541
3.46867	9539
3.46933	9538
3.47000	9536
3.47067	9535
3.47133	9534
3.47200	9532
3.47267	9531
3.47333	9530
3.47400	9529
3.47467	9528
3.47533	9527
3.47600	9526
3.47667	9526
3.47733	9525
3.47800	9524
3.47867	9524
3.47933	9523
3.48000	9523
3.48067	9523
3.48133	9523
3.48200	9523
3.48267	9523
3.48333	9523
3.48400	9523
3.48467	9523
3.48533	9524
3.48600	9525
3.48667	9525
3.48733	9526
3.48800	9527
3.48867	9528
3.48933	9530
3.49000	9531
3.49067	9533
3.49133	9534
3.49200	9536
3.49267	9538
3.49333	9540
3.49400	9543
3.49467	9545
3.49533	9548
3.49600	9551
3.49667	9554
3.49733	9557
3.49800	9561
3.49867	9565
3.49933	9569
3.50000	9573
3.50067	9578
3.50133	9583
3.50200	9588
3.50267	9594
3.50333	9600
3.50400	9606
3.50467	9613
3.50533	9620
3.50600	9627
3.50667	9635
3.50733	9643
3.50800	9652
3.50867	9661
3.50933	9671
3.51000	9682
3.51067	9693
3.51133	9704
3.51200	9717
3.51267	9729
3.51333	9743
3.51400	9757
3.51467	9772
3.51533	9788
3.51600	9804
3.51667	9821
3.51733	9839
3.51800	9858
3.51867	9877
3.51933	9897
3.52000	9918
3.52067	9941
3.52133	9964
3.52200	9988
3.52267	10013
3.52333	10039
3.52400	10066
3.52467	10094
3.52533	10123
3.52600	10153
3.52667	10184
3.52733	10217
3.52800	10250
3.52867	10285
3.52933	10321
3.53000	10358
3.53067	10396
3.53133	10435
3.53200	10476
3.53267	10517
3.53333	10560
3.53400	10605
3.53467	10650
3.53533	10697
3.53600	10745
3.53667	10794
3.53733	10844
3.53800	10896
3.53867	10949
3.53933	11003
3.54000	11057
3.54067	11114
3.54133	11171
3.54200	11229
3.54267	11289
3.54333	11349
3.54400	11411
3.54467	11473
3.54533	11536
3.54600	11600
3.54667	11665
3.54733	11730
3.54800	11797
3.54867	11864
3.54933	11931
3.55000	11999
3.55067	12067
3.55133	12136
3.55200	12206
3.55267	12275
3.55333	12345
3.55400	12415
3.55467	12485
3.55533	12555
3.55600	12625
3.55667	12696
3.55733	12766
3.55800	12836
3.55867	12905
3.55933	12975
3.56000	13045
3.56067	13114
3.56133	13183
3.56200	13251
3.56267	13319
3.56333	13387
3.56400	13454
3.56467	13521
3.56533	13587
3.56600	13652
3.56667	13717
3.56733	13781
3.56800	13844
3.56867	13907
3.56933	13968
3.57000	14029
3.57067	14090
3.57133	14149
3.57200	14207
3.57267	14265
3.57333	14322
3.57400	14378
3.57467	14433
3.57533	14488
3.57600	14541
3.57667	14594
3.57733	14645
3.57800	14696
3.57867	14746
3.57933	14795
3.58000	14843
3.58067	14890
3.58133	14936
3.58200	14981
3.58267	15025
3.58333	15068
3.58400	15111
3.58467	15152
3.58533	15192
3.58600	15231
3.58667	15270
3.58733	15307
3.58800	15344
3.58867	15379
3.58933	15414
3.59000	15449
3.59067	15482
3.59133	15515
3.59200	15547
3.59267	15579
3.59333	15610
3.59400	15640
3.59467	15669
3.59533	15698
3.59600	15727
3.59667	15754
3.59733	15781
3.59800	15808
3.59867	15834
3.59933	15859
3.60000	15883
3.60067	15907
3.60133	15930
3.60200	15953
3.60267	15975
3.60333	15996
3.60400	16017
3.60467	16037
3.60533	16056
3.60600	16074
3.60667	16092
3.60733	16110
3.60800	16126
3.60867	16142
3.60933	16157
3.61000	16172
3.61067	16185
3.61133	16198
3.61200	16210
3.61267	16222
3.61333	16232
3.61400	16242
3.61467	16250
3.61533	16258
3.61600	16264
3.61667	16270
3.61733	16274
3.61800	16278
3.61867	16280
3.61933	16281
3.62000	16281
3.62067	16279
3.62133	16277
3.62200	16273
3.62267	16268
3.62333	16261
3.62400	16254
3.62467	16245
3.62533	16235
3.62600	16223
3.62667	16210
3.62733	16196
3.62800	16180
3.62867	16163
3.62933	16145
3.63000	16125
3.63067	16104
3.63133	16081
3.63200	16057
3.63267	16031
3.63333	16004
3.63400	15976
3.63467	15946
3.63533	15915
3.63600	15882
3.63667	15848
3.63733	15813
3.63800	15776
3.63867	15739
3.63933	15699
3.64000	15659
3.64067	15618
3.64133	15575
3.64200	15532
3.64267	15487
3.64333	15441
3.64400	15395
3.64467	15347
3.64533	15298
3.64600	15249
3.64667	15199
3.64733	15147
3.64800	15095
3.64867	15042
3.64933	14989
3.65000	14935
3.65067	14880
3.65133	14824
3.65200	14768
3.65267	14711
3.65333	14653
3.65400	14595
3.65467	14537
3.65533	14478
3.65600	14418
3.65667	14359
3.65733	14299
3.65800	14239
3.65867	14178
3.65933	14117
3.66000	14057
3.66067	13996
3.66133	13934
3.66200	13873
3.66267	13812
3.66333	13751
3.66400	13689
3.66467	13628
3.66533	13567
3.66600	13506
3.66667	13445
3.66733	13384
3.66800	13323
3.66867	13263
3.66933	13203
3.67000	13143
3.67067	13084
3.67133	13024
3.67200	12965
3.67267	12907
3.67333	12849
3.67400	12791
3.67467	12734
3.67533	12677
3.67600	12620
3.67667	12564
3.67733	12508
3.67800	12453
3.67867	12399
3.67933	12344
3.68000	12291
3.68067	12238
3.68133	12185
3.68200	12133
3.68267	12082
3.68333	12031
3.68400	11981
3.68467	11931
3.68533	11882
3.68600	11834
3.68667	11786
3.68733	11738
3.68800	11692
3.68867	11645
3.68933	11600
3.69000	11555
3.69067	11510
3.69133	11467
3.69200	11423
3.69267	11381
3.69333	11338
3.69400	11297
3.69467	11256
3.69533	11216
3.69600	11176
3.69667	11137
3.69733	11098
3.69800	11060
3.69867	11022
3.69933	10985
3.70000	10949
3.70067	10913
3.70133	10877
3.70200	10842
3.70267	10808
3.70333	10774
3.70400	10740
3.70467	10708
3.70533	10675
3.70600	10643
3.70667	10612
3.70733	10581
3.70800	10550
3.70867	10520
3.70933	10491
3.71000	10462
3.71067	10433
3.71133	10405
3.71200	10377
3.71267	10350
3.71333	10323
3.71400	10297
3.71467	10271
3.71533	10245
3.71600	10220
3.71667	10195
3.71733	10170
3.71800	10146
3.71867	10122
3.71933	10098
3.72000	10075
3.72067	10053
3.72133	10030
3.72200	10008
3.72267	9987
3.72333	9965
3.72400	9944
3.72467	9924
3.72533	9904
3.72600	9884
3.72667	9864
3.72733	9844
3.72800	9825
3.72867	9807
3.72933	9788
3.73000	9770
3.73067	9752
3.73133	9734
3.73200	9717
3.73267	9700
3.73333	9683
3.73400	9666
3.73467	9650
3.73533	9634
3.73600	9618
3.73667	9602
3.73733	9586
3.73800	9571
3.73867	9556
3.73933	9541
3.74000	9527
3.74067	9513
3.74133	9498
3.74200	9485
3.74267	9471
3.74333	9457
3.74400	9444
3.74467	9431
3.74533	9418
3.74600	9405
3.74667	9392
3.74733	9380
3.74800	9367
3.74867	9355
3.74933	9343
3.75000	9331
3.75067	9319
3.75133	9307
3.75200	9296
3.75267	9285
3.75333	9273
3.75400	9262
3.75467	9251
3.75533	9240
3.75600	9230
3.75667	9219
3.75733	9209
3.75800	9198
3.75867	9188
3.75933	9178
3.76000	9168
3.76067	9158
3.76133	9148
3.76200	9138
3.76267	9128
3.76333	9119
3.76400	9109
3.76467	9100
3.76533	9091
3.76600	9082
3.76667	9072
3.76733	9063
3.76800	9054
3.76867	9045
3.76933	9036
3.77000	9028
3.77067	9019
3.77133	9010
3.77200	9002
3.77267	8994
3.77333	8985
3.77400	8977
3.77467	8969
3.77533	8961
3.77600	8953
3.77667	8945
3.77733	8937
3.77800	8930
3.77867	8922
3.77933	8914
3.78000	8907
3.78067	8899
3.78133	8892
3.78200	8884
3.78267	8877
3.78333	8869
3.78400	8862
3.78467	8855
3.78533	8848
3.78600	8841
3.78667	8834
3.78733	8827
3.78800	8820
3.78867	8813
3.78933	8806
3.79000	8799
3.79067	8792
3.79133	8786
3.79200	8779
3.79267	8772
3.79333	8766
3.79400	8759
3.79467	8753
3.79533	8746
3.79600	8740
3.79667	8733
3.79733	8727
3.79800	8721
3.79867	8715
3.79933	8709
3.80000	8702
3.80067	8696
3.80133	8690
3.80200	8684
3.80267	8678
3.80333	8673
3.80400	8667
3.80467	8661
3.80533	8655
3.80600	8650
3.80667	8644
3.80733	8638
3.80800	8633
3.80867	8627
3.80933	8622
3.81000	8617
3.81067	8611
3.81133	8606
3.81200	8601
3.81267	8595
3.81333	8590
3.81400	8585
3.81467	8580
3.81533	8575
3.81600	8570
3.81667	8565
3.81733	8560
3.81800	8555
3.81867	8550
3.81933	8545
3.82000	8540
3.82067	8535
3.82133	8530
3.82200	8525
3.82267	8520
3.82333	8516
3.82400	8511
3.82467	8506
3.82533	8501
3.82600	8496
3.82667	8491
3.82733	8487
3.82800	8482
3.82867	8477
3.82933	8473
3.83000	8468
3.83067	8463
3.83133	8459
3.83200	8454
3.83267	8449
3.83333	8445
3.83400	8440
3.83467	8436
3.83533	8431
3.83600	8427
3.83667	8422
3.83733	8418
3.83800	8413
3.83867	8409
3.83933	8405
3.84000	8401
3.84067	8396
3.84133	8392
3.84200	8388
3.84267	8384
3.84333	8379
3.84400	8375
3.84467	8371
3.84533	8367
3.84600	8363
3.84667	8359
3.84733	8355
3.84800	8351
3.84867	8347
3.84933	8343
3.85000	8339
3.85067	8335
3.85133	8331
3.85200	8327
3.85267	8323
3.85333	8319
3.85400	8316
3.85467	8312
3.85533	8308
3.85600	8304
3.85667	8301
3.85733	8297
3.85800	8293
3.85867	8290
3.85933	8286
3.86000	8283
3.86067	8279
3.86133	8275
3.86200	8272
3.86267	8268
3.86333	8265
3.86400	8262
3.86467	8258
3.86533	8255
3.86600	8252
3.86667	8248
3.86733	8245
3.86800	8242
3.86867	8239
3.86933	8235
3.87000	8232
3.87067	8229
3.87133	8226
3.87200	8223
3.87267	8220
3.87333	8217
3.87400	8214
3.87467	8211
3.87533	8208
3.87600	8205
3.87667	8202
3.87733	8199
3.87800	8196
3.87867	8193
3.87933	8190
3.88000	8187
3.88067	8184
3.88133	8181
3.88200	8178
3.88267	8175
3.88333	8173
3.88400	8170
3.88467	8167
3.88533	8164
3.88600	8161
3.88667	8159
3.88733	8156
3.88800	8153
3.88867	8151
3.88933	8148
3.89000	8145
3.89067	8142
3.89133	8140
3.89200	8137
3.89267	8134
3.89333	8131
3.89400	8129
3.89467	8126
3.89533	8123
3.89600	8121
3.89667	8118
3.89733	8115
3.89800	8113
3.89867	8110
3.89933	8108
3.90000	8105
3.90067	8102
3.90133	8100
3.90200	8097
3.90267	8095
3.90333	8092
3.90400	8089
3.90467	8087
3.90533	8084
3.90600	8082
3.90667	8079
3.90733	8076
3.90800	8074
3.90867	8071
3.90933	8069
3.91000	8066
3.91067	8064
3.91133	8061
3.91200	8059
3.91267	8056
3.91333	8054
3.91400	8052
3.91467	8049
3.91533	8047
3.91600	8044
3.91667	8041
3.91733	8039
3.91800	8036
3.91867	8034
3.91933	8031
3.92000	8029
3.92067	8026
3.92133	8024
3.92200	8021
3.92267	8019
3.92333	8016
3.92400	8014
3.92467	8012
3.92533	8009
3.92600	8007
3.92667	8004
3.92733	8002
3.92800	8000
3.92867	7997
3.92933	7995
3.93000	7993
3.93067	7991
3.93133	7988
3.93200	7986
3.93267	7984
3.93333	7982
3.93400	7980
3.93467	7978
3.93533	7976
3.93600	7974
3.93667	7972
3.93733	7970
3.93800	7968
3.93867	7967
3.93933	7965
3.94000	7963
3.94067	7961
3.94133	7959
3.94200	7957
3.94267	7955
3.94333	7953
3.94400	7952
3.94467	7950
3.94533	7948
3.94600	7946
3.94667	7944
3.94733	7942
3.94800	7941
3.94867	7939
3.94933	7937
3.95000	7935
3.95067	7933
3.95133	7932
3.95200	7930
3.95267	7928
3.95333	7926
3.95400	7924
3.95467	7922
3.95533	7921
3.95600	7919
3.95667	7917
3.95733	7915
3.95800	7913
3.95867	7912
3.95933	7910
3.96000	7908
3.96067	7907
3.96133	7905
3.96200	7903
3.96267	7901
3.96333	7900
3.96400	7898
3.96467	7896
3.96533	7894
3.96600	7892
3.96667	7891
3.96733	7889
3.96800	7887
3.96867	7885
3.96933	7883
3.97000	7881
3.97067	7880
3.97133	7878
3.97200	7876
3.97267	7874
3.97333	7873
3.97400	7871
3.97467	7869
3.97533	7868
3.97600	7866
3.97667	7864
3.97733	7863
3.97800	7861
3.97867	7860
3.97933	7858
3.98000	7856
3.98067	7855
3.98133	7853
3.98200	7852
3.98267	7850
3.98333	7849
3.98400	7848
3.98467	7846
3.98533	7845
3.98600	7843
3.98667	7842
3.98733	7841
3.98800	7839
3.98867	7838
3.98933	7837
3.99000	7836
3.99067	7834
3.99133	7833
3.99200	7832
3.99267	7831
3.99333	7830
3.99400	7829
3.99467	7827
3.99533	7826
3.99600	7825
3.99667	7824
3.99733	7823
3.99800	7822
3.99867	7821
3.99933	7820
4.00000	7819
4.00067	7819
4.00133	7818
4.00200	7817
4.00267	7816
4.00333	7815
4.00400	7814
4.00467	7814
4.00533	7813
4.00600	7812
4.00667	7812
4.00733	7811
4.00800	7811
4.00867	7810
4.00933	7809
4.01000	7809
4.01067	7809
4.01133	7808
4.01200	7808
4.01267	7807
4.01333	7807
4.01400	7807
4.01467	7806
4.01533	7806
4.01600	7806
4.01667	7806
4.01733	7806
4.01800	7806
4.01867	7806
4.01933	7806
4.02000	7806
4.02067	7806
4.02133	7806
4.02200	7806
4.02267	7806
4.02333	7807
4.02400	7807
4.02467	7808
4.02533	7808
4.02600	7809
4.02667	7809
4.02733	7810
4.02800	7811
4.02867	7812
4.02933	7813
4.03000	7814
4.03067	7815
4.03133	7816
4.03200	7817
4.03267	7818
4.03333	7820
4.03400	7821
4.03467	7823
4.03533	7825
4.03600	7826
4.03667	7828
4.03733	7830
4.03800	7832
4.03867	7833
4.03933	7835
4.04000	7837
4.04067	7839
4.04133	7841
4.04200	7844
4.04267	7846
4.04333	7848
4.04400	7850
4.04467	7853
4.04533	7855
4.04600	7858
4.04667	7860
4.04733	7863
4.04800	7865
4.04867	7868
4.04933	7871
4.05000	7873
4.05067	7876
4.05133	7879
4.05200	7882
4.05267	7885
4.05333	7888
4.05400	7891
4.05467	7894
4.05533	7897
4.05600	7900
4.05667	7903
4.05733	7906
4.05800	7909
4.05867	7912
4.05933	7916
4.06000	7919
4.06067	7922
4.06133	7926
4.06200	7929
4.06267	7933
4.06333	7937
4.06400	7940
4.06467	7944
4.06533	7947
4.06600	7951
4.06667	7954
4.06733	7958
4.06800	7961
4.06867	7965
4.06933	7969
4.07000	7972
4.07067	7976
4.07133	7979
4.07200	7983
4.07267	7986
4.07333	7990
4.07400	7994
4.07467	7997
4.07533	8001
4.07600	8004
4.07667	8008
4.07733	8011
4.07800	8015
4.07867	8018
4.07933	8022
4.08000	8025
4.08067	8029
4.08133	8033
4.08200	8036
4.08267	8040
4.08333	8043
4.08400	8047
4.08467	8051
4.08533	8054
4.08600	8058
4.08667	8061
4.08733	8065
4.08800	8068
4.08867	8072
4.08933	8075
4.09000	8079
4.09067	8082
4.09133	8085
4.09200	8089
4.09267	8092
4.09333	8096
4.09400	8099
4.09467	8103
4.09533	8106
4.09600	8109
4.09667	8113
4.09733	8116
4.09800	8119
4.09867	8123
4.09933	8126
4.10000	8129
4.10067	8133
4.10133	8136
4.10200	8139
4.10267	8142
4.10333	8146
4.10400	8149
4.10467	8152
4.10533	8155
4.10600	8158
4.10667	8162
4.10733	8165
4.10800	8168
4.10867	8171
4.10933	8175
4.11000	8178
4.11067	8181
4.11133	8185
4.11200	8188
4.11267	8191
4.11333	8195
4.11400	8198
4.11467	8202
4.11533	8205
4.11600	8209
4.11667	8212
4.11733	8215
4.11800	8219
4.11867	8222
4.11933	8226
4.12000	8230
4.12067	8233
4.12133	8237
4.12200	8241
4.12267	8245
4.12333	8248
4.12400	8252
4.12467	8256
4.12533	8260
4.12600	8264
4.12667	8268
4.12733	8273
4.12800	8277
4.12867	8281
4.12933	8286
4.13000	8290
4.13067	8295
4.13133	8300
4.13200	8305
4.13267	8309
4.13333	8314
4.13400	8319
4.13467	8324
4.13533	8330
4.13600	8335
4.13667	8340
4.13733	8346
4.13800	8351
4.13867	8357
4.13933	8363
4.14000	8369
4.14067	8375
4.14133	8381
4.14200	8388
4.14267	8394
4.14333	8401
4.14400	8408
4.14467	8414
4.14533	8422
4.14600	8429
4.14667	8436
4.14733	8444
4.14800	8452
4.14867	8460
4.14933	8468
4.15000	8476
4.15067	8485
4.15133	8493
4.15200	8502
4.15267	8512
4.15333	8521
4.15400	8530
4.15467	8540
4.15533	8550
4.15600	8561
4.15667	8571
4.15733	8582
4.15800	8593
4.15867	8604
4.15933	8616
4.16000	8628
4.16067	8640
4.16133	8652
4.16200	8665
4.16267	8678
4.16333	8692
4.16400	8706
4.16467	8720
4.16533	8734
4.16600	8749
4.16667	8764
4.16733	8780
4.16800	8795
4.16867	8812
4.16933	8828
4.17000	8845
4.17067	8863
4.17133	8881
4.17200	8899
4.17267	8917
4.17333	8937
4.17400	8956
4.17467	8976
4.17533	8996
4.17600	9017
4.17667	9038
4.17733	9060
4.17800	9082
4.17867	9105
4.17933	9128
4.18000	9151
4.18067	9176
4.18133	9200
4.18200	9226
4.18267	9251
4.18333	9278
4.18400	9305
4.18467	9332
4.18533	9360
4.18600	9389
4.18667	9418
4.18733	9448
4.18800	9479
4.18867	9510
4.18933	9542
4.19000	9574
4.19067	9607
4.19133	9641
4.19200	9676
4.19267	9711
4.19333	9747
4.19400	9784
4.19467	9821
4.19533	9860
4.19600	9899
4.19667	9939
4.19733	9980
4.19800	10022
4.19867	10065
4.19933	10108
4.20000	10153
4.20067	10198
4.20133	10245
4.20200	10292
4.20267	10341
4.20333	10391
4.20400	10442
4.20467	10493
4.20533	10546
4.20600	10600
4.20667	10656
4.20733	10712
4.20800	10769
4.20867	10828
4.20933	10888
4.21000	10948
4.21067	11011
4.21133	11074
4.21200	11138
4.21267	11204
4.21333	11271
4.21400	11340
4.21467	11409
4.21533	11480
4.21600	11553
4.21667	11626
4.21733	11702
4.21800	11778
4.21867	11856
4.21933	11936
4.22000	12017
4.22067	12100
4.22133	12185
4.22200	12271
4.22267	12359
4.22333	12449
4.22400	12540
4.22467	12634
4.22533	12729
4.22600	12826
4.22667	12925
4.22733	13026
4.22800	13130
4.22867	13235
4.22933	13342
4.23000	13451
4.23067	13563
4.23133	13677
4.23200	13793
4.23267	13911
4.23333	14032
4.23400	14155
4.23467	14280
4.23533	14408
4.23600	14539
4.23667	14671
4.23733	14807
4.23800	14944
4.23867	15085
4.23933	15228
4.24000	15373
4.24067	15521
4.24133	15672
4.24200	15826
4.24267	15982
4.24333	16142
4.24400	16304
4.24467	16468
4.24533	16636
4.24600	16806
4.24667	16979
4.24733	17155
4.24800	17333
4.24867	17514
4.24933	17697
4.25000	17883
4.25067	18072
4.25133	18263
4.25200	18457
4.25267	18653
4.25333	18851
4.25400	19052
4.25467	19255
4.25533	19461
4.25600	19669
4.25667	19879
4.25733	20091
4.25800	20306
4.25867	20523
4.25933	20742
4.26000	20963
4.26067	21186
4.26133	21411
4.26200	21637
4.26267	21865
4.26333	22095
4.26400	22326
4.26467	22558
4.26533	22792
4.26600	23028
4.26667	23265
4.26733	23503
4.26800	23742
4.26867	23984
4.26933	24226
4.27000	24471
4.27067	24716
4.27133	24964
4.27200	25213
4.27267	25463
4.27333	25715
4.27400	25968
4.27467	26222
4.27533	26478
4.27600	26735
4.27667	26993
4.27733	27251
4.27800	27511
4.27867	27772
4.27933	28033
4.28000	28296
4.28067	28559
4.28133	28822
4.28200	29086
4.28267	29351
4.28333	29616
4.28400	29881
4.28467	30146
4.28533	30412
4.28600	30678
4.28667	30944
4.28733	31209
4.28800	31475
4.28867	31740
4.28933	32005
4.29000	32270
4.29067	32535
4.29133	32799
4.29200	33062
4.29267	33325
4.29333	33588
4.29400	33850
4.29467	34111
4.29533	34372
4.29600	34632
4.29667	34891
4.29733	35150
4.29800	35408
4.29867	35664
4.29933	35920
4.30000	36175
4.30067	36428
4.30133	36680
4.30200	36931
4.30267	37180
4.30333	37428
4.30400	37675
4.30467	37919
4.30533	38162
4.30600	38404
4.30667	38643
4.30733	38881
4.30800	39116
4.30867	39350
4.30933	39581
4.31000	39811
4.31067	40038
4.31133	40263
4.31200	40485
4.31267	40705
4.31333	40923
4.31400	41138
4.31467	41350
4.31533	41560
4.31600	41767
4.31667	41971
4.31733	42173
4.31800	42371
4.31867	42567
4.31933	42760
4.32000	42949
4.32067	43136
4.32133	43319
4.32200	43499
4.32267	43675
4.32333	43848
4.32400	44017
4.32467	44182
4.32533	44344
4.32600	44502
4.32667	44656
4.32733	44806
4.32800	44952
4.32867	45094
4.32933	45233
4.33000	45367
4.33067	45497
4.33133	45622
4.33200	45744
4.33267	45861
4.33333	45973
4.33400	46080
4.33467	46183
4.33533	46281
4.33600	46373
4.33667	46460
4.33733	46541
4.33800	46617
4.33867	46688
4.33933	46753
4.34000	46812
4.34067	46866
4.34133	46913
4.34200	46955
4.34267	46991
4.34333	47022
4.34400	47046
4.34467	47064
4.34533	47075
4.34600	47081
4.34667	47080
4.34733	47073
4.34800	47060
4.34867	47040
4.34933	47015
4.35000	46983
4.35067	46944
4.35133	46900
4.35200	46850
4.35267	46793
4.35333	46731
4.35400	46662
4.35467	46587
4.35533	46506
4.35600	46420
4.35667	46327
4.35733	46228
4.35800	46124
4.35867	46014
4.35933	45898
4.36000	45777
4.36067	45650
4.36133	45519
4.36200	45382
4.36267	45240
4.36333	45093
4.36400	44941
4.36467	44785
4.36533	44625
4.36600	44460
4.36667	44291
4.36733	44118
4.36800	43941
4.36867	43760
4.36933	43575
4.37000	43387
4.37067	43195
4.37133	42999
4.37200	42801
4.37267	42598
4.37333	42393
4.37400	42185
4.37467	41974
4.37533	41760
4.37600	41544
4.37667	41326
4.37733	41105
4.37800	40883
4.37867	40658
4.37933	40431
4.38000	40203
4.38067	39974
4.38133	39743
4.38200	39511
4.38267	39279
4.38333	39045
4.38400	38811
4.38467	38576
4.38533	38340
4.38600	38105
4.38667	37869
4.38733	37634
4.38800	37398
4.38867	37163
4.38933	36929
4.39000	36695
4.39067	36461
4.39133	36228
4.39200	35996
4.39267	35766
4.39333	35536
4.39400	35307
4.39467	35080
4.39533	34855
4.39600	34631
4.39667	34408
4.39733	34188
4.39800	33969
4.39867	33753
4.39933	33538
4.40000	33326
4.40067	33116
4.40133	32908
4.40200	32702
4.40267	32498
4.40333	32297
4.40400	32099
4.40467	31903
4.40533	31709
4.40600	31518
4.40667	31330
4.40733	31145
4.40800	30962
4.40867	30782
4.40933	30605
4.41000	30431
4.41067	30260
4.41133	30091
4.41200	29926
4.41267	29763
4.41333	29603
4.41400	29447
4.41467	29293
4.41533	29142
4.41600	28994
4.41667	28849
4.41733	28707
4.41800	28568
4.41867	28431
4.41933	28298
4.42000	28167
4.42067	28039
4.42133	27914
4.42200	27791
4.42267	27671
4.42333	27553
4.42400	27438
4.42467	27326
4.42533	27216
4.42600	27108
4.42667	27003
4.42733	26900
4.42800	26800
4.42867	26701
4.42933	26605
4.43000	26511
4.43067	26418
4.43133	26328
4.43200	26240
4.43267	26153
4.43333	26069
4.43400	25986
4.43467	25904
4.43533	25824
4.43600	25746
4.43667	25669
4.43733	25594
4.43800	25520
4.43867	25447
4.43933	25376
4.44000	25306
4.44067	25237
4.44133	25169
4.44200	25102
4.44267	25036
4.44333	24971
4.44400	24907
4.44467	24843
4.44533	24780
4.44600	24718
4.44667	24656
4.44733	24595
4.44800	24534
4.44867	24474
4.44933	24414
4.45000	24354
4.45067	24294
4.45133	24235
4.45200	24176
4.45267	24118
4.45333	24059
4.45400	24001
4.45467	23943
4.45533	23885
4.45600	23827
4.45667	23769
4.45733	23711
4.45800	23654
4.45867	23596
4.45933	23538
4.46000	23480
4.46067	23421
4.46133	23363
4.46200	23304
4.46267	23245
4.46333	23186
4.46400	23126
4.46467	23066
4.46533	23006
4.46600	22945
4.46667	22884
4.46733	22822
4.46800	22760
4.46867	22698
4.46933	22636
4.47000	22572
4.47067	22509
4.47133	22445
4.47200	22381
4.47267	22316
4.47333	22250
4.47400	22185
4.47467	22118
4.47533	22052
4.47600	21984
4.47667	21917
4.47733	21848
4.47800	21780
4.47867	21710
4.47933	21641
4.48000	21571
4.48067	21500
4.48133	21429
4.48200	21358
4.48267	21286
4.48333	21214
4.48400	21141
4.48467	21068
4.48533	20995
4.48600	20921
4.48667	20848
4.48733	20774
4.48800	20699
4.48867	20625
4.48933	20550
4.49000	20475
4.49067	20401
4.49133	20325
4.49200	20250
4.49267	20175
4.49333	20100
4.49400	20025
4.49467	19950
4.49533	19875
4.49600	19800
4.49667	19725
4.49733	19650
4.49800	19575
4.49867	19501
4.49933	19426
4.50000	19352
4.50067	19278
4.50133	19205
4.50200	19131
4.50267	19058
4.50333	18986
4.50400	18914
4.50467	18842
4.50533	18771
4.50600	18700
4.50667	18630
4.50733	18560
4.50800	18491
4.50867	18422
4.50933	18354
4.51000	18286
4.51067	18220
4.51133	18154
4.51200	18088
4.51267	18024
4.51333	17959
4.51400	17896
4.51467	17834
4.51533	17772
4.51600	17711
4.51667	17651
4.51733	17592
4.51800	17534
4.51867	17477
4.51933	17421
4.52000	17366
4.52067	17312
4.52133	17259
4.52200	17207
4.52267	17156
4.52333	17107
4.52400	17059
4.52467	17012
4.52533	16966
4.52600	16922
4.52667	16879
4.52733	16838
4.52800	16798
4.52867	16759
4.52933	16722
4.53000	16687
4.53067	16653
4.53133	16620
4.53200	16589
4.53267	16560
4.53333	16532
4.53400	16505
4.53467	16481
4.53533	16457
4.53600	16436
4.53667	16416
4.53733	16398
4.53800	16381
4.53867	16366
4.53933	16353
4.54000	16341
4.54067	16331
4.54133	16323
4.54200	16316
4.54267	16311
4.54333	16308
4.54400	16307
4.54467	16307
4.54533	16309
4.54600	16312
4.54667	16318
4.54733	16325
4.54800	16334
4.54867	16345
4.54933	16357
4.55000	16372
4.55067	16388
4.55133	16406
4.55200	16425
4.55267	16447
4.55333	16470
4.55400	16495
4.55467	16521
4.55533	16549
4.55600	16579
4.55667	16611
4.55733	16644
4.55800	16679
4.55867	16715
4.55933	16753
4.56000	16793
4.56067	16834
4.56133	16877
4.56200	16921
4.56267	16967
4.56333	17014
4.56400	17063
4.56467	17114
4.56533	17165
4.56600	17218
4.56667	17273
4.56733	17328
4.56800	17385
4.56867	17443
4.56933	17502
4.57000	17563
4.57067	17624
4.57133	17687
4.57200	17750
4.57267	17815
4.57333	17880
4.57400	17946
4.57467	18013
4.57533	18081
4.57600	18149
4.57667	18218
4.57733	18288
4.57800	18358
4.57867	18429
4.57933	18501
4.58000	18573
4.58067	18646
4.58133	18718
4.58200	18791
4.58267	18865
4.58333	18938
4.58400	19012
4.58467	19086
4.58533	19160
4.58600	19233
4.58667	19307
4.58733	19381
4.58800	19454
4.58867	19527
4.58933	19599
4.59000	19671
4.59067	19743
4.59133	19813
4.59200	19884
4.59267	19954
4.59333	20023
4.59400	20091
4.59467	20158
4.59533	20225
4.59600	20291
4.59667	20355
4.59733	20419
4.59800	20482
4.59867	20544
4.59933	20604
4.60000	20663
4.60067	20721
4.60133	20778
4.60200	20833
4.60267	20887
4.60333	20939
4.60400	20990
4.60467	21039
4.60533	21087
4.60600	21133
4.60667	21178
4.60733	21221
4.60800	21262
4.60867	21301
4.60933	21339
4.61000	21375
4.61067	21409
4.61133	21442
4.61200	21473
4.61267	21502
4.61333	21529
4.61400	21555
4.61467	21579
4.61533	21601
4.61600	21621
4.61667	21640
4.61733	21656
4.61800	21671
4.61867	21684
4.61933	21695
4.62000	21705
4.62067	21712
4.62133	21718
4.62200	21721
4.62267	21723
4.62333	21723
4.62400	21722
4.62467	21718
4.62533	21713
4.62600	21705
4.62667	21696
4.62733	21685
4.62800	21672
4.62867	21658
4.62933	21641
4.63000	21624
4.63067	21604
4.63133	21583
4.63200	21561
4.63267	21537
4.63333	21511
4.63400	21485
4.63467	21457
4.63533	21428
4.63600	21398
4.63667	21367
4.63733	21334
4.63800	21300
4.63867	21266
4.63933	21230
4.64000	21193
4.64067	21155
4.64133	21115
4.64200	21075
4.64267	21034
4.64333	20992
4.64400	20949
4.64467	20906
4.64533	20861
4.64600	20815
4.64667	20769
4.64733	20722
4.64800	20674
4.64867	20626
4.64933	20576
4.65000	20526
4.65067	20476
4.65133	20425
4.65200	20373
4.65267	20321
4.65333	20269
4.65400	20216
4.65467	20162
4.65533	20109
4.65600	20054
4.65667	20000
4.65733	19945
4.65800	19890
4.65867	19834
4.65933	19779
4.66000	19723
4.66067	19666
4.66133	19610
4.66200	19554
4.66267	19497
4.66333	19441
4.66400	19384
4.66467	19327
4.66533	19270
4.66600	19214
4.66667	19157
4.66733	19100
4.66800	19043
4.66867	18987
4.66933	18930
4.67000	18874
4.67067	18817
4.67133	18761
4.67200	18705
4.67267	18649
4.67333	18593
4.67400	18537
4.67467	18481
4.67533	18426
4.67600	18371
4.67667	18316
4.67733	18261
4.67800	18207
4.67867	18153
4.67933	18099
4.68000	18046
4.68067	17993
4.68133	17940
4.68200	17888
4.68267	17836
4.68333	17784
4.68400	17733
4.68467	17682
4.68533	17631
4.68600	17581
4.68667	17531
4.68733	17482
4.68800	17433
4.68867	17384
4.68933	17335
4.69000	17287
4.69067	17240
4.69133	17192
4.69200	17146
4.69267	17099
4.69333	17053
4.69400	17007
4.69467	16962
4.69533	16916
4.69600	16872
4.69667	16827
4.69733	16783
4.69800	16740
4.69867	16696
4.69933	16653
4.70000	16611
4.70067	16569
4.70133	16527
4.70200	16486
4.70267	16445
4.70333	16404
4.70400	16364
4.70467	16324
4.70533	16285
4.70600	16246
4.70667	16207
4.70733	16169
4.70800	16131
4.70867	16093
4.70933	16056
4.71000	16019
4.71067	15983
4.71133	15946
4.71200	15911
4.71267	15875
4.71333	15840
4.71400	15805
4.71467	15771
4.71533	15736
4.71600	15703
4.71667	15669
4.71733	15636
4.71800	15604
4.71867	15571
4.71933	15540
4.72000	15508
4.72067	15477
4.72133	15446
4.72200	15416
4.72267	15386
4.72333	15356
4.72400	15327
4.72467	15298
4.72533	15269
4.72600	15241
4.72667	15213
4.72733	15186
4.72800	15158
4.72867	15132
4.72933	15105
4.73000	15079
4.73067	15053
4.73133	15027
4.73200	15002
4.73267	14977
4.73333	14952
4.73400	14927
4.73467	14903
4.73533	14879
4.73600	14855
4.73667	14831
4.73733	14808
4.73800	14785
4.73867	14762
4.73933	14739
4.74000	14716
4.74067	14694
4.74133	14672
4.74200	14649
4.74267	14628
4.74333	14606
4.74400	14584
4.74467	14563
4.74533	14542
4.74600	14521
4.74667	14500
4.74733	14479
4.74800	14458
4.74867	14437
4.74933	14417
4.75000	14397
4.75067	14377
4.75133	14357
4.75200	14337
4.75267	14317
4.75333	14298
4.75400	14278
4.75467	14259
4.75533	14240
4.75600	14222
4.75667	14203
4.75733	14185
4.75800	14167
4.75867	14149
4.75933	14131
4.76000	14113
4.76067	14096
4.76133	14078
4.76200	14061
4.76267	14044
4.76333	14027
4.76400	14011
4.76467	13994
4.76533	13978
4.76600	13961
4.76667	13945
4.76733	13929
4.76800	13913
4.76867	13898
4.76933	13882
4.77000	13866
4.77067	13851
4.77133	13836
4.77200	13820
4.77267	13805
4.77333	13790
4.77400	13775
4.77467	13760
4.77533	13745
4.77600	13731
4.77667	13716
4.77733	13702
4.77800	13687
4.77867	13673
4.77933	13659
4.78000	13645
4.78067	13631
4.78133	13617
4.78200	13604
4.78267	13590
4.78333	13577
4.78400	13564
4.78467	13551
4.78533	13538
4.78600	13525
4.78667	13512
4.78733	13500
4.78800	13487
4.78867	13475
4.78933	13462
4.79000	13450
4.79067	13438
4.79133	13426
4.79200	13414
4.79267	13402
4.79333	13391
4.79400	13379
4.79467	13367
4.79533	13356
4.79600	13344
4.79667	13333
4.79733	13322
4.79800	13311
4.79867	13299
4.79933	13288
4.80000	13277
4.80067	13266
4.80133	13256
4.80200	13245
4.80267	13234
4.80333	13223
4.80400	13213
4.80467	13203
4.80533	13192
4.80600	13182
4.80667	13172
4.80733	13161
4.80800	13151
4.80867	13141
4.80933	13131
4.81000	13121
4.81067	13110
4.81133	13100
4.81200	13090
4.81267	13080
4.81333	13070
4.81400	13060
4.81467	13050
4.81533	13041
4.81600	13031
4.81667	13021
4.81733	13011
4.81800	13002
4.81867	12992
4.81933	12982
4.82000	12973
4.82067	12963
4.82133	12954
4.82200	12944
4.82267	12934
4.82333	12925
4.82400	12915
4.82467	12905
4.82533	12896
4.82600	12886
4.82667	12877
4.82733	12867
4.82800	12858
4.82867	12848
4.82933	12839
4.83000	12829
4.83067	12820
4.83133	12810
4.83200	12801
4.83267	12792
4.83333	12782
4.83400	12773
4.83467	12763
4.83533	12754
4.83600	12745
4.83667	12735
4.83733	12726
4.83800	12716
4.83867	12706
4.83933	12697
4.84000	12687
4.84067	12678
4.84133	12668
4.84200	12659
4.84267	12649
4.84333	12639
4.84400	12630
4.84467	12620
4.84533	12611
4.84600	12601
4.84667	12592
4.84733	12582
4.84800	12573
4.84867	12564
4.84933	12555
4.85000	12546
4.85067	12537
4.85133	12528
4.85200	12519
4.85267	12510
4.85333	12501
4.85400	12493
4.85467	12484
4.85533	12475
4.85600	12467
4.85667	12458
4.85733	12450
4.85800	12441
4.85867	12433
4.85933	12424
4.86000	12416
4.86067	12408
4.86133	12400
4.86200	12391
4.86267	12383
4.86333	12375
4.86400	12367
4.86467	12359
4.86533	12351
4.86600	12343
4.86667	12336
4.86733	12328
4.86800	12320
4.86867	12312
4.86933	12304
4.87000	12296
4.87067	12289
4.87133	12281
4.87200	12273
4.87267	12266
4.87333	12258
4.87400	12251
4.87467	12243
4.87533	12236
4.87600	12228
4.87667	12221
4.87733	12213
4.87800	12206
4.87867	12198
4.87933	12191
4.88000	12183
4.88067	12176
4.88133	12168
4.88200	12161
4.88267	12153
4.88333	12146
4.88400	12139
4.88467	12131
4.88533	12124
4.88600	12117
4.88667	12110
4.88733	12103
4.88800	12095
4.88867	12088
4.88933	12081
4.89000	12074
4.89067	12067
4.89133	12060
4.89200	12053
4.89267	12046
4.89333	12039
4.89400	12032
4.89467	12025
4.89533	12018
4.89600	12011
4.89667	12004
4.89733	11998
4.89800	11991
4.89867	11984
4.89933	11978
4.90000	11971
4.90067	11964
4.90133	11958
4.90200	11951
4.90267	11945
4.90333	11938
4.90400	11932
4.90467	11925
4.90533	11919
4.90600	11913
4.90667	11906
4.90733	11900
4.90800	11894
4.90867	11888
4.90933	11882
4.91000	11876
4.91067	11870
4.91133	11864
4.91200	11858
4.91267	11852
4.91333	11846
4.91400	11840
4.91467	11834
4.91533	11828
4.91600	11822
4.91667	11816
4.91733	11810
4.91800	11804
4.91867	11798
4.91933	11791
4.92000	11785
4.92067	11779
4.92133	11773
4.92200	11767
4.92267	11761
4.92333	11754
4.92400	11748
4.92467	11742
4.92533	11736
4.92600	11730
4.92667	11724
4.92733	11718
4.92800	11712
4.92867	11706
4.92933	11700
4.93000	11694
4.93067	11688
4.93133	11682
4.93200	11676
4.93267	11670
4.93333	11663
4.93400	11657
4.93467	11651
4.93533	11645
4.93600	11639
4.93667	11632
4.93733	11626
4.93800	11620
4.93867	11614
4.93933	11608
4.94000	11602
4.94067	11596
4.94133	11590
4.94200	11584
4.94267	11578
4.94333	11572
4.94400	11566
4.94467	11560
4.94533	11554
4.94600	11548
4.94667	11542
4.94733	11536
4.94800	11529
4.94867	11523
4.94933	11517
4.95000	11511
4.95067	11505
4.95133	11499
4.95200	11492
4.95267	11486
4.95333	11480
4.95400	11474
4.95467	11468
4.95533	11462
4.95600	11455
4.95667	11449
4.95733	11443
4.95800	11437
4.95867	11431
4.95933	11425
4.96000	11419
4.96067	11412
4.96133	11406
4.96200	11400
4.96267	11394
4.96333	11388
4.96400	11382
4.96467	11377
4.96533	11371
4.96600	11365
4.96667	11359
4.96733	11354
4.96800	11348
4.96867	11343
4.96933	11337
4.97000	11332
4.97067	11326
4.97133	11321
4.97200	11316
4.97267	11311
4.97333	11305
4.97400	11300
4.97467	11295
4.97533	11290
4.97600	11285
4.97667	11280
4.97733	11275
4.97800	11270
4.97867	11265
4.97933	11260
4.98000	11255
4.98067	11251
4.98133	11246
4.98200	11242
4.98267	11237
4.98333	11232
4.98400	11228
4.98467	11224
4.98533	11219
4.98600	11215
4.98667	11211
4.98733	11207
4.98800	11202
4.98867	11198
4.98933	11194
4.99000	11190
4.99067	11186
4.99133	11182
4.99200	11177
4.99267	11173
4.99333	11169
4.99400	11165
4.99467	11161
4.99533	11156
4.99600	11152
4.99667	11148
4.99733	11143
4.99800	11139
4.99867	11135
4.99933	11130
5.00000	11126
5.00067	11121
5.00133	11117
5.00200	11112
5.00267	11108
5.00333	11103
5.00400	11098
5.00467	11094
5.00533	11089
5.00600	11084
5.00667	11080
5.00733	11075
5.00800	11070
5.00867	11065
5.00933	11061
5.01000	11056
5.01067	11051
5.01133	11046
5.01200	11041
5.01267	11037
5.01333	11032
5.01400	11027
5.01467	11022
5.01533	11017
5.01600	11013
5.01667	11008
5.01733	11003
5.01800	10998
5.01867	10993
5.01933	10989
5.02000	10984
5.02067	10979
5.02133	10975
5.02200	10970
5.02267	10965
5.02333	10961
5.02400	10956
5.02467	10951
5.02533	10947
5.02600	10942
5.02667	10938
5.02733	10933
5.02800	10928
5.02867	10923
5.02933	10919
5.03000	10914
5.03067	10909
5.03133	10905
5.03200	10900
5.03267	10895
5.03333	10890
5.03400	10885
5.03467	10880
5.03533	10875
5.03600	10870
5.03667	10865
5.03733	10860
5.03800	10855
5.03867	10850
5.03933	10845
5.04000	10840
5.04067	10835
5.04133	10830
5.04200	10825
5.04267	10820
5.04333	10815
5.04400	10810
5.04467	10804
5.04533	10799
5.04600	10794
5.04667	10789
5.04733	10784
5.04800	10779
5.04867	10773
5.04933	10768
5.05000	10763
5.05067	10758
5.05133	10753
5.05200	10748
5.05267	10743
5.05333	10738
5.05400	10733
5.05467	10728
5.05533	10723
5.05600	10718
5.05667	10713
5.05733	10708
5.05800	10703
5.05867	10698
5.05933	10693
5.06000	10688
5.06067	10683
5.06133	10679
5.06200	10674
5.06267	10669
5.06333	10664
5.06400	10659
5.06467	10655
5.06533	10650
5.06600	10645
5.06667	10641
5.06733	10636
5.06800	10631
5.06867	10627
5.06933	10622
5.07000	10617
5.07067	10613
5.07133	10608
5.07200	10604
5.07267	10600
5.07333	10595
5.07400	10591
5.07467	10587
5.07533	10583
5.07600	10579
5.07667	10575
5.07733	10571
5.07800	10567
5.07867	10563
5.07933	10559
5.08000	10556
5.08067	10552
5.08133	10548
5.08200	10545
5.08267	10541
5.08333	10538
5.08400	10534
5.08467	10531
5.08533	10528
5.08600	10524
5.08667	10521
5.08733	10518
5.08800	10515
5.08867	10512
5.08933	10509
5.09000	10506
5.09067	10504
5.09133	10501
5.09200	10498
5.09267	10496
5.09333	10493
5.09400	10491
5.09467	10489
5.09533	10487
5.09600	10485
5.09667	10483
5.09733	10481
5.09800	10480
5.09867	10478
5.09933	10477
5.10000	10476
5.10067	10475
5.10133	10474
5.10200	10473
5.10267	10473
5.10333	10473
5.10400	10473
5.10467	10473
5.10533	10474
5.10600	10474
5.10667	10476
5.10733	10477
5.10800	10478
5.10867	10480
5.10933	10482
5.11000	10485
5.11067	10487
5.11133	10490
5.11200	10493
5.11267	10497
5.11333	10501
5.11400	10505
5.11467	10509
5.11533	10514
5.11600	10519
5.11667	10525
5.11733	10530
5.11800	10537
5.11867	10543
5.11933	10551
5.12000	10558
5.12067	10566
5.12133	10575
5.12200	10584
5.12267	10593
5.12333	10603
5.12400	10614
5.12467	10625
5.12533	10637
5.12600	10649
5.12667	10662
5.12733	10675
5.12800	10690
5.12867	10704
5.12933	10720
5.13000	10737
5.13067	10754
5.13133	10772
5.13200	10790
5.13267	10810
5.13333	10830
5.13400	10852
5.13467	10874
5.13533	10897
5.13600	10921
5.13667	10947
5.13733	10973
5.13800	11000
5.13867	11028
5.13933	11058
5.14000	11088
5.14067	11120
5.14133	11153
5.14200	11188
5.14267	11223
5.14333	11260
5.14400	11298
5.14467	11338
5.14533	11379
5.14600	11421
5.14667	11465
5.14733	11510
5.14800	11557
5.14867	11605
5.14933	11655
5.15000	11706
5.15067	11759
5.15133	11813
5.15200	11869
5.15267	11927
5.15333	11986
5.15400	12047
5.15467	12109
5.15533	12174
5.15600	12240
5.15667	12307
5.15733	12376
5.15800	12448
5.15867	12520
5.15933	12595
5.16000	12671
5.16067	12750
5.16133	12830
5.16200	12911
5.16267	12995
5.16333	13080
5.16400	13168
5.16467	13257
5.16533	13348
5.16600	13441
5.16667	13535
5.16733	13632
5.16800	13730
5.16867	13831
5.16933	13933
5.17000	14037
5.17067	14143
5.17133	14251
5.17200	14361
5.17267	14473
5.17333	14587
5.17400	14702
5.17467	14820
5.17533	14939
5.17600	15060
5.17667	15183
5.17733	15308
5.17800	15434
5.17867	15562
5.17933	15692
5.18000	15823
5.18067	15956
5.18133	16090
5.18200	16226
5.18267	16364
5.18333	16503
5.18400	16643
5.18467	16785
5.18533	16927
5.18600	17072
5.18667	17217
5.18733	17363
5.18800	17511
5.18867	17659
5.18933	17809
5.19000	17959
5.19067	18111
5.19133	18263
5.19200	18416
5.19267	18569
5.19333	18723
5.19400	18878
5.19467	19034
5.19533	19190
5.19600	19346
5.19667	19503
5.19733	19660
5.19800	19817
5.19867	19975
5.19933	20132
5.20000	20290
5.20067	20447
5.20133	20604
5.20200	20761
5.20267	20917
5.20333	21073
5.20400	21229
5.20467	21384
5.20533	21538
5.20600	21692
5.20667	21845
5.20733	21997
5.20800	22148
5.20867	22299
5.20933	22448
5.21000	22597
5.21067	22744
5.21133	22889
5.21200	23034
5.21267	23177
5.21333	23319
5.21400	23459
5.21467	23597
5.21533	23734
5.21600	23868
5.21667	24001
5.21733	24132
5.21800	24261
5.21867	24388
5.21933	24513
5.22000	24635
5.22067	24755
5.22133	24872
5.22200	24987
5.22267	25100
5.22333	25210
5.22400	25317
5.22467	25421
5.22533	25523
5.22600	25622
5.22667	25717
5.22733	25810
5.22800	25900
5.22867	25987
5.22933	26071
5.23000	26151
5.23067	26229
5.23133	26303
5.23200	26375
5.23267	26443
5.23333	26508
5.23400	26569
5.23467	26628
5.23533	26683
5.23600	26735
5.23667	26783
5.23733	26829
5.23800	26871
5.23867	26910
5.23933	26945
5.24000	26977
5.24067	27005
5.24133	27031
5.24200	27052
5.24267	27071
5.24333	27086
5.24400	27097
5.24467	27105
5.24533	27110
5.24600	27112
5.24667	27110
5.24733	27105
5.24800	27097
5.24867	27085
5.24933	27070
5.25000	27052
5.25067	27031
5.25133	27006
5.25200	26979
5.25267	26948
5.25333	26914
5.25400	26878
5.25467	26838
5.25533	26796
5.25600	26751
5.25667	26704
5.25733	26653
5.25800	26600
5.25867	26545
5.25933	26486
5.26000	26426
5.26067	26363
5.26133	26298
5.26200	26230
5.26267	26161
5.26333	26089
5.26400	26015
5.26467	25940
5.26533	25862
5.26600	25783
5.26667	25701
5.26733	25619
5.26800	25534
5.26867	25448
5.26933	25360
5.27000	25271
5.27067	25180
5.27133	25088
5.27200	24994
5.27267	24899
5.27333	24803
5.27400	24706
5.27467	24608
5.27533	24509
5.27600	24408
5.27667	24307
5.27733	24205
5.27800	24102
5.27867	23998
5.27933	23893
5.28000	23788
5.28067	23682
5.28133	23576
5.28200	23469
5.28267	23361
5.28333	23254
5.28400	23146
5.28467	23037
5.28533	22929
5.28600	22820
5.28667	22712
5.28733	22603
5.28800	22494
5.28867	22386
5.28933	22277
5.29000	22169
5.29067	22061
5.29133	21953
5.29200	21845
5.29267	21737
5.29333	21630
5.29400	21523
5.29467	21416
5.29533	21310
5.29600	21204
5.29667	21098
5.29733	20993
5.29800	20888
5.29867	20784
5.29933	20680
5.30000	20577
5.30067	20474
5.30133	20372
5.30200	20270
5.30267	20169
5.30333	20069
5.30400	19969
5.30467	19870
5.30533	19772
5.30600	19674
5.30667	19577
5.30733	19481
5.30800	19386
5.30867	19292
5.30933	19198
5.31000	19105
5.31067	19013
5.31133	18922
5.31200	18832
5.31267	18743
5.31333	18654
5.31400	18566
5.31467	18479
5.31533	18393
5.31600	18308
5.31667	18224
5.31733	18141
5.31800	18058
5.31867	17976
5.31933	17895
5.32000	17815
5.32067	17736
5.32133	17658
5.32200	17580
5.32267	17504
5.32333	17428
5.32400	17353
5.32467	17279
5.32533	17206
5.32600	17133
5.32667	17062
5.32733	16991
5.32800	16921
5.32867	16852
5.32933	16783
5.33000	16716
5.33067	16649
5.33133	16583
5.33200	16517
5.33267	16453
5.33333	16389
5.33400	16325
5.33467	16263
5.33533	16201
5.33600	16140
5.33667	16079
5.33733	16020
5.33800	15961
5.33867	15902
5.33933	15844
5.34000	15787
5.34067	15731
5.34133	15675
5.34200	15620
5.34267	15565
5.34333	15511
5.34400	15458
5.34467	15405
5.34533	15353
5.34600	15302
5.34667	15251
5.34733	15201
5.34800	15151
5.34867	15102
5.34933	15053
5.35000	15005
5.35067	14958
5.35133	14911
5.35200	14865
5.35267	14819
5.35333	14773
5.35400	14729
5.35467	14684
5.35533	14641
5.35600	14597
5.35667	14554
5.35733	14512
5.35800	14470
5.35867	14429
5.35933	14388
5.36000	14348
5.36067	14308
5.36133	14269
5.36200	14230
5.36267	14192
5.36333	14154
5.36400	14117
5.36467	14080
5.36533	14043
5.36600	14007
5.36667	13971
5.36733	13936
5.36800	13901
5.36867	13866
5.36933	13832
5.37000	13799
5.37067	13765
5.37133	13732
5.37200	13700
5.37267	13668
5.37333	13636
5.37400	13604
5.37467	13572
5.37533	13541
5.37600	13510
5.37667	13480
5.37733	13450
5.37800	13420
5.37867	13390
5.37933	13360
5.38000	13331
5.38067	13302
5.38133	13274
5.38200	13246
5.38267	13218
5.38333	13190
5.38400	13163
5.38467	13136
5.38533	13109
5.38600	13083
5.38667	13057
5.38733	13031
5.38800	13005
5.38867	12980
5.38933	12955
5.39000	12930
5.39067	12905
5.39133	12881
5.39200	12857
5.39267	12834
5.39333	12810
5.39400	12787
5.39467	12764
5.39533	12741
5.39600	12719
5.39667	12697
5.39733	12675
5.39800	12653
5.39867	12631
5.39933	12610
5.40000	12589
5.40067	12568
5.40133	12547
5.40200	12527
5.40267	12506
5.40333	12486
5.40400	12466
5.40467	12446
5.40533	12427
5.40600	12408
5.40667	12388
5.40733	12369
5.40800	12351
5.40867	12332
5.40933	12314
5.41000	12295
5.41067	12277
5.41133	12259
5.41200	12242
5.41267	12224
5.41333	12206
5.41400	12189
5.41467	12172
5.41533	12155
5.41600	12138
5.41667	12122
5.41733	12106
5.41800	12090
5.41867	12074
5.41933	12058
5.42000	12042
5.42067	12026
5.42133	12011
5.42200	11995
5.42267	11980
5.42333	11965
5.42400	11949
5.42467	11934
5.42533	11920
5.42600	11905
5.42667	11890
5.42733	11875
5.42800	11861
5.42867	11846
5.42933	11832
5.43000	11818
5.43067	11803
5.43133	11789
5.43200	11775
5.43267	11761
5.43333	11747
5.43400	11733
5.43467	11719
5.43533	11705
5.43600	11692
5.43667	11678
5.43733	11665
5.43800	11651
5.43867	11638
5.43933	11624
5.44000	11611
5.44067	11598
5.44133	11585
5.44200	11572
5.44267	11559
5.44333	11546
5.44400	11533
5.44467	11520
5.44533	11507
5.44600	11495
5.44667	11482
5.44733	11469
5.44800	11457
5.44867	11444
5.44933	11432
5.45000	11419
5.45067	11407
5.45133	11395
5.45200	11382
5.45267	11370
5.45333	11358
5.45400	11346
5.45467	11334
5.45533	11322
5.45600	11309
5.45667	11298
5.45733	11286
5.45800	11274
5.45867	11262
5.45933	11250
5.46000	11238
5.46067	11227
5.46133	11215
5.46200	11203
5.46267	11192
5.46333	11180
5.46400	11169
5.46467	11157
5.46533	11146
5.46600	11134
5.46667	11123
5.46733	11111
5.46800	11100
5.46867	11089
5.46933	11078
5.47000	11067
5.47067	11055
5.47133	11044
5.47200	11033
5.47267	11022
5.47333	11011
5.47400	11000
5.47467	10989
5.47533	10979
5.47600	10968
5.47667	10957
5.47733	10947
5.47800	10936
5.47867	10926
5.47933	10915
5.48000	10905
5.48067	10895
5.48133	10884
5.48200	10874
5.48267	10864
5.48333	10854
5.48400	10844
5.48467	10834
5.48533	10824
5.48600	10814
5.48667	10804
5.48733	10794
5.48800	10785
5.48867	10775
5.48933	10766
5.49000	10756
5.49067	10747
5.49133	10737
5.49200	10728
5.49267	10719
5.49333	10710
5.49400	10700
5.49467	10691
5.49533	10682
5.49600	10673
5.49667	10664
5.49733	10655
5.49800	10647
5.49867	10638
5.49933	10629
5.50000	10620
5.50067	10612
5.50133	10603
5.50200	10594
5.50267	10586
5.50333	10578
5.50400	10569
5.50467	10561
5.50533	10553
5.50600	10545
5.50667	10536
5.50733	10528
5.50800	10520
5.50867	10512
5.50933	10504
5.51000	10496
5.51067	10488
5.51133	10481
5.51200	10473
5.51267	10465
5.51333	10458
5.51400	10450
5.51467	10443
5.51533	10435
5.51600	10428
5.51667	10421
5.51733	10413
5.51800	10406
5.51867	10399
5.51933	10392
5.52000	10385
5.52067	10378
5.52133	10371
5.52200	10365
5.52267	10358
5.52333	10351
5.52400	10344
5.52467	10337
5.52533	10330
5.52600	10323
5.52667	10316
5.52733	10309
5.52800	10302
5.52867	10296
5.52933	10289
5.53000	10282
5.53067	10275
5.53133	10268
5.53200	10262
5.53267	10255
5.53333	10248
5.53400	10242
5.53467	10235
5.53533	10229
5.53600	10222
5.53667	10216
5.53733	10209
5.53800	10203
5.53867	10196
5.53933	10190
5.54000	10183
5.54067	10177
5.54133	10170
5.54200	10164
5.54267	10157
5.54333	10151
5.54400	10144
5.54467	10138
5.54533	10131
5.54600	10125
5.54667	10118
5.54733	10112
5.54800	10105
5.54867	10099
5.54933	10093
5.55000	10087
5.55067	10081
5.55133	10075
5.55200	10069
5.55267	10063
5.55333	10057
5.55400	10051
5.55467	10045
5.55533	10039
5.55600	10033
5.55667	10028
5.55733	10022
5.55800	10016
5.55867	10010
5.55933	10005
5.56000	9999
5.56067	9993
5.56133	9988
5.56200	9982
5.56267	9976
5.56333	9971
5.56400	9965
5.56467	9960
5.56533	9954
5.56600	9949
5.56667	9944
5.56733	9939
5.56800	9933
5.56867	9928
5.56933	9923
5.57000	9918
5.57067	9913
5.57133	9908
5.57200	9903
5.57267	9898
5.57333	9893
5.57400	9889
5.57467	9884
5.57533	9880
5.57600	9875
5.57667	9871
5.57733	9867
5.57800	9862
5.57867	9858
5.57933	9854
5.58000	9850
5.58067	9845
5.58133	9841
5.58200	9837
5.58267	9833
5.58333	9829
5.58400	9825
5.58467	9821
5.58533	9816
5.58600	9812
5.58667	9808
5.58733	9804
5.58800	9800
5.58867	9796
5.58933	9792
5.59000	9788
5.59067	9784
5.59133	9780
5.59200	9776
5.59267	9772
5.59333	9768
5.59400	9764
5.59467	9760
5.59533	9757
5.59600	9753
5.59667	9749
5.59733	9745
5.59800	9741
5.59867	9738
5.59933	9734
5.60000	9730
5.60067	9727
5.60133	9723
5.60200	9719
5.60267	9716
5.60333	9713
5.60400	9709
5.60467	9706
5.60533	9702
5.60600	9699
5.60667	9695
5.60733	9692
5.60800	9689
5.60867	9685
5.60933	9682
5.61000	9679
5.61067	9675
5.61133	9672
5.61200	9669
5.61267	9665
5.61333	9662
5.61400	9659
5.61467	9655
5.61533	9652
5.61600	9648
5.61667	9645
5.61733	9641
5.61800	9638
5.61867	9634
5.61933	9631
5.62000	9627
5.62067	9624
5.62133	9620
5.62200	9617
5.62267	9613
5.62333	9609
5.62400	9606
5.62467	9602
5.62533	9599
5.62600	9595
5.62667	9592
5.62733	9588
5.62800	9585
5.62867	9581
5.62933	9578
5.63000	9574
5.63067	9571
5.63133	9567
5.63200	9564
5.63267	9560
5.63333	9557
5.63400	9553
5.63467	9550
5.63533	9546
5.63600	9543
5.63667	9540
5.63733	9536
5.63800	9533
5.63867	9529
5.63933	9526
5.64000	9523
5.64067	9519
5.64133	9516
5.64200	9512
5.64267	9509
5.64333	9505
5.64400	9502
5.64467	9498
5.64533	9495
5.64600	9491
5.64667	9488
5.64733	9484
5.64800	9481
5.64867	9477
5.64933	9474
5.65000	9470
5.65067	9466
5.65133	9463
5.65200	9459
5.65267	9456
5.65333	9452
5.65400	9448
5.65467	9445
5.65533	9441
5.65600	9437
5.65667	9434
5.65733	9430
5.65800	9426
5.65867	9422
5.65933	9419
5.66000	9415
5.66067	9411
5.66133	9407
5.66200	9403
5.66267	9399
5.66333	9395
5.66400	9392
5.66467	9388
5.66533	9384
5.66600	9380
5.66667	9377
5.66733	9373
5.66800	9369
5.66867	9366
5.66933	9362
5.67000	9359
5.67067	9355
5.67133	9352
5.67200	9349
5.67267	9345
5.67333	9342
5.67400	9339
5.67467	9335
5.67533	9332
5.67600	9329
5.67667	9326
5.67733	9323
5.67800	9319
5.67867	9316
5.67933	9313
5.68000	9310
5.68067	9307
5.68133	9304
5.68200	9301
5.68267	9298
5.68333	9295
5.68400	9292
5.68467	9289
5.68533	9286
5.68600	9283
5.68667	9280
5.68733	9277
5.68800	9274
5.68867	9271
5.68933	9269
5.69000	9266
5.69067	9263
5.69133	9260
5.69200	9257
5.69267	9255
5.69333	9252
5.69400	9249
5.69467	9247
5.69533	9244
5.69600	9241
5.69667	9238
5.69733	9236
5.69800	9233
5.69867	9230
5.69933	9228
5.70000	9225
5.70067	9223
5.70133	9220
5.70200	9217
5.70267	9215
5.70333	9212
5.70400	9209
5.70467	9207
5.70533	9204
5.70600	9202
5.70667	9199
5.70733	9197
5.70800	9194
5.70867	9192
5.70933	9189
5.71000	9187
5.71067	9185
5.71133	9182
5.71200	9180
5.71267	9178
5.71333	9175
5.71400	9173
5.71467	9171
5.71533	9169
5.71600	9167
5.71667	9165
5.71733	9163
5.71800	9161
5.71867	9159
5.71933	9157
5.72000	9155
5.72067	9153
5.72133	9152
5.72200	9150
5.72267	9148
5.72333	9147
5.72400	9145
5.72467	9143
5.72533	9142
5.72600	9140
5.72667	9139
5.72733	9138
5.72800	9136
5.72867	9135
5.72933	9134
5.73000	9132
5.73067	9131
5.73133	9130
5.73200	9129
5.73267	9128
5.73333	9127
5.73400	9126
5.73467	9125
5.73533	9124
5.73600	9123
5.73667	9122
5.73733	9121
5.73800	9120
5.73867	9120
5.73933	9119
5.74000	9118
5.74067	9118
5.74133	9117
5.74200	9117
5.74267	9116
5.74333	9116
5.74400	9115
5.74467	9115
5.74533	9115
5.74600	9115
5.74667	9114
5.74733	9114
5.74800	9114
5.74867	9114
5.74933	9114
5.75000	9114
5.75067	9114
5.75133	9114
5.75200	9114
5.75267	9114
5.75333	9115
5.75400	9115
5.75467	9115
5.75533	9115
5.75600	9116
5.75667	9116
5.75733	9116
5.75800	9117
5.75867	9117
5.75933	9118
5.76000	9118
5.76067	9119
5.76133	9119
5.76200	9120
5.76267	9120
5.76333	9121
5.76400	9122
5.76467	9123
5.76533	9124
5.76600	9125
5.76667	9126
5.76733	9127
5.76800	9129
5.76867	9130
5.76933	9131
5.77000	9133
5.77067	9134
5.77133	9136
5.77200	9137
5.77267	9139
5.77333	9141
5.77400	9143
5.77467	9145
5.77533	9147
5.77600	9149
5.77667	9151
5.77733	9153
5.77800	9155
5.77867	9157
5.77933	9159
5.78000	9161
5.78067	9164
5.78133	9166
5.78200	9168
5.78267	9170
5.78333	9173
5.78400	9175
5.78467	9177
5.78533	9180
5.78600	9182
5.78667	9184
5.78733	9187
5.78800	9189
5.78867	9192
5.78933	9194
5.79000	9197
5.79067	9200
5.79133	9202
5.79200	9205
5.79267	9208
5.79333	9210
5.79400	9213
5.79467	9216
5.79533	9218
5.79600	9221
5.79667	9224
5.79733	9226
5.79800	9229
5.79867	9232
5.79933	9235
5.80000	9237
5.80067	9240
5.80133	9243
5.80200	9246
5.80267	9249
5.80333	9252
5.80400	9255
5.80467	9258
5.80533	9261
5.80600	9264
5.80667	9267
5.80733	9270
5.80800	9273
5.80867	9276
5.80933	9280
5.81000	9283
5.81067	9286
5.81133	9289
5.81200	9292
5.81267	9295
5.81333	9299
5.81400	9302
5.81467	9305
5.81533	9308
5.81600	9311
5.81667	9315
5.81733	9318
5.81800	9321
5.81867	9324
5.81933	9328
5.82000	9331
5.82067	9334
5.82133	9337
5.82200	9340
5.82267	9343
5.82333	9347
5.82400	9350
5.82467	9353
5.82533	9356
5.82600	9359
5.82667	9362
5.82733	9364
5.82800	9367
5.82867	9370
5.82933	9373
5.83000	9376
5.83067	9378
5.83133	9381
5.83200	9384
5.83267	9386
5.83333	9389
5.83400	9391
5.83467	9394
5.83533	9396
5.83600	9398
5.83667	9400
5.83733	9402
5.83800	9404
5.83867	9406
5.83933	9408
5.84000	9410
5.84067	9411
5.84133	9413
5.84200	9415
5.84267	9416
5.84333	9417
5.84400	9419
5.84467	9420
5.84533	9421
5.84600	9422
5.84667	9423
5.84733	9424
5.84800	9425
5.84867	9426
5.84933	9427
5.85000	9427
5.85067	9428
5.85133	9428
5.85200	9429
5.85267	9429
5.85333	9429
5.85400	9429
5.85467	9430
5.85533	9430
5.85600	9430
5.85667	9430
5.85733	9431
5.85800	9431
5.85867	9431
5.85933	9431
5.86000	9430
5.86067	9430
5.86133	9430
5.86200	9430
5.86267	9429
5.86333	9429
5.86400	9429
5.86467	9428
5.86533	9428
5.86600	9427
5.86667	9426
5.86733	9425
5.86800	9424
5.86867	9424
5.86933	9423
5.87000	9421
5.87067	9420
5.87133	9419
5.87200	9418
5.87267	9416
5.87333	9415
5.87400	9414
5.87467	9412
5.87533	9411
5.87600	9409
5.87667	9407
5.87733	9405
5.87800	9404
5.87867	9402
5.87933	9400
5.88000	9398
5.88067	9396
5.88133	9393
5.88200	9391
5.88267	9389
5.88333	9387
5.88400	9384
5.88467	9382
5.88533	9379
5.88600	9377
5.88667	9374
5.88733	9372
5.88800	9369
5.88867	9366
5.88933	9363
5.89000	9361
5.89067	9358
5.89133	9355
5.89200	9352
5.89267	9348
5.89333	9345
5.89400	9342
5.89467	9339
5.89533	9336
5.89600	9332
5.89667	9329
5.89733	9326
5.89800	9322
5.89867	9319
5.89933	9315
5.90000	9312
5.90067	9308
5.90133	9305
5.90200	9301
5.90267	9298
5.90333	9294
5.90400	9291
5.90467	9287
5.90533	9283
5.90600	9280
5.90667	9276
5.90733	9272
5.90800	9269
5.90867	9265
5.90933	9261
5.91000	9257
5.91067	9254
5.91133	9250
5.91200	9246
5.91267	9242
5.91333	9238
5.91400	9234
5.91467	9230
5.91533	9226
5.91600	9222
5.91667	9218
5.91733	9214
5.91800	9210
5.91867	9207
5.91933	9203
5.92000	9199
5.92067	9195
5.92133	9191
5.92200	9187
5.92267	9183
5.92333	9179
5.92400	9176
5.92467	9172
5.92533	9168
5.92600	9164
5.92667	9160
5.92733	9156
5.92800	9153
5.92867	9149
5.92933	9145
5.93000	9141
5.93067	9137
5.93133	9134
5.93200	9130
5.93267	9126
5.93333	9123
5.93400	9119
5.93467	9115
5.93533	9111
5.93600	9108
5.93667	9104
5.93733	9100
5.93800	9097
5.93867	9093
5.93933	9089
5.94000	9085
5.94067	9081
5.94133	9078
5.94200	9074
5.94267	9070
5.94333	9067
5.94400	9063
5.94467	9059
5.94533	9056
5.94600	9052
5.94667	9048
5.94733	9044
5.94800	9041
5.94867	9037
5.94933	9033
5.95000	9030
5.95067	9026
5.95133	9022
5.95200	9019
5.95267	9015
5.95333	9011
5.95400	9008
5.95467	9004
5.95533	9001
5.95600	8997
5.95667	8994
5.95733	8990
5.95800	8987
5.95867	8983
5.95933	8980
5.96000	8976
5.96067	8973
5.96133	8969
5.96200	8966
5.96267	8962
5.96333	8958
5.96400	8955
5.96467	8951
5.96533	8948
5.96600	8944
5.96667	8940
5.96733	8937
5.96800	8933
5.96867	8930
5.96933	8926
5.97000	8923
5.97067	8919
5.97133	8916
5.97200	8912
5.97267	8909
5.97333	8905
5.97400	8902
5.97467	8898
5.97533	8895
5.97600	8891
5.97667	8888
5.97733	8885
5.97800	8881
5.97867	8878
5.97933	8875
5.98000	8872
5.98067	8868
5.98133	8865
5.98200	8862
5.98267	8859
5.98333	8856
5.98400	8853
5.98467	8850
5.98533	8847
5.98600	8844
5.98667	8841
5.98733	8839
5.98800	8836
5.98867	8833
5.98933	8830
5.99000	8828
5.99067	8825
5.99133	8822
5.99200	8820
5.99267	8817
5.99333	8814
5.99400	8812
5.99467	8809
5.99533	8807
5.99600	8804
5.99667	8802
5.99733	8799
5.99800	8797
5.99867	8794
5.99933	8792
6.00000	8789
6.00067	8787
6.00133	8784
6.00200	8782
6.00267	8780
6.00333	8778
6.00400	8775
6.00467	8773
6.00533	8771
6.00600	8769
6.00667	8767
6.00733	8764
6.00800	8762
6.00867	8760
6.00933	8758
6.01000	8756
6.01067	8754
6.01133	8751
6.01200	8749
6.01267	8747
6.01333	8745
6.01400	8743
6.01467	8741
6.01533	8739
6.01600	8736
6.01667	8734
6.01733	8732
6.01800	8730
6.01867	8728
6.01933	8726
6.02000	8723
6.02067	8721
6.02133	8719
6.02200	8717
6.02267	8714
6.02333	8712
6.02400	8710
6.02467	8708
6.02533	8705
6.02600	8703
6.02667	8701
6.02733	8699
6.02800	8696
6.02867	8694
6.02933	8692
6.03000	8690
6.03067	8687
6.03133	8685
6.03200	8683
6.03267	8681
6.03333	8679
6.03400	8676
6.03467	8674
6.03533	8672
6.03600	8670
6.03667	8667
6.03733	8665
6.03800	8663
6.03867	8661
6.03933	8659
6.04000	8656
6.04067	8654
6.04133	8652
6.04200	8650
6.04267	8648
6.04333	8646
6.04400	8643
6.04467	8641
6.04533	8639
6.04600	8637
6.04667	8635
6.04733	8633
6.04800	8631
6.04867	8629
6.04933	8627
6.05000	8625
6.05067	8623
6.05133	8621
6.05200	8619
6.05267	8617
6.05333	8615
6.05400	8613
6.05467	8612
6.05533	8610
6.05600	8608
6.05667	8607
6.05733	8605
6.05800	8603
6.05867	8602
6.05933	8600
6.06000	8598
6.06067	8597
6.06133	8595
6.06200	8593
6.06267	8592
6.06333	8590
6.06400	8589
6.06467	8587
6.06533	8585
6.06600	8584
6.06667	8582
6.06733	8580
6.06800	8579
6.06867	8577
6.06933	8575
6.07000	8574
6.07067	8572
6.07133	8570
6.07200	8569
6.07267	8567
6.07333	8566
6.07400	8564
6.07467	8563
6.07533	8561
6.07600	8560
6.07667	8558
6.07733	8556
6.07800	8555
6.07867	8553
6.07933	8552
6.08000	8550
6.08067	8548
6.08133	8547
6.08200	8545
6.08267	8544
6.08333	8542
6.08400	8540
6.08467	8539
6.08533	8537
6.08600	8535
6.08667	8534
6.08733	8532
6.08800	8531
6.08867	8529
6.08933	8527
6.09000	8526
6.09067	8524
6.09133	8523
6.09200	8521
6.09267	8520
6.09333	8518
6.09400	8517
6.09467	8515
6.09533	8514
6.09600	8512
6.09667	8511
6.09733	8509
6.09800	8508
6.09867	8506
6.09933	8504
6.10000	8503
6.10067	8501
6.10133	8500
6.10200	8498
6.10267	8497
6.10333	8495
6.10400	8494
6.10467	8492
6.10533	8491
6.10600	8489
6.10667	8487
6.10733	8486
6.10800	8484
6.10867	8483
6.10933	8481
6.11000	8480
6.11067	8478
6.11133	8477
6.11200	8475
6.11267	8474
6.11333	8472
6.11400	8471
6.11467	8469
6.11533	8468
6.11600	8466
6.11667	8464
6.11733	8463
6.11800	8461
6.11867	8459
6.11933	8458
6.12000	8456
6.12067	8454
6.12133	8453
6.12200	8451
6.12267	8449
6.12333	8447
6.12400	8446
6.12467	8444
6.12533	8442
6.12600	8441
6.12667	8439
6.12733	8437
6.12800	8436
6.12867	8434
6.12933	8432
6.13000	8431
6.13067	8429
6.13133	8428
6.13200	8426
6.13267	8425
6.13333	8424
6.13400	8422
6.13467	8421
6.13533	8420
6.13600	8418
6.13667	8417
6.13733	8416
6.13800	8415
6.13867	8414
6.13933	8412
6.14000	8411
6.14067	8410
6.14133	8409
6.14200	8408
6.14267	8407
6.14333	8405
6.14400	8404
6.14467	8403
6.14533	8402
6.14600	8401
6.14667	8401
6.14733	8400
6.14800	8399
6.14867	8398
6.14933	8397
6.15000	8396
6.15067	8395
6.15133	8394
6.15200	8394
6.15267	8393
6.15333	8392
6.15400	8391
6.15467	8390
6.15533	8390
6.15600	8389
6.15667	8388
6.15733	8388
6.15800	8387
6.15867	8386
6.15933	8385
6.16000	8385
6.16067	8384
6.16133	8383
6.16200	8382
6.16267	8381
6.16333	8381
6.16400	8380
6.16467	8379
6.16533	8378
6.16600	8378
6.16667	8377
6.16733	8376
6.16800	8376
6.16867	8375
6.16933	8374
6.17000	8374
6.17067	8373
6.17133	8373
6.17200	8372
6.17267	8372
6.17333	8371
6.17400	8371
6.17467	8370
6.17533	8370
6.17600	8369
6.17667	8369
6.17733	8368
6.17800	8368
6.17867	8367
6.17933	8367
6.18000	8367
6.18067	8367
6.18133	8366
6.18200	8366
6.18267	8366
6.18333	8366
6.18400	8366
6.18467	8366
6.18533	8366
6.18600	8366
6.18667	8366
6.18733	8366
6.18800	8366
6.18867	8366
6.18933	8367
6.19000	8367
6.19067	8367
6.19133	8368
6.19200	8368
6.19267	8369
6.19333	8369
6.19400	8370
6.19467	8370
6.19533	8371
6.19600	8371
6.19667	8372
6.19733	8373
6.19800	8373
6.19867	8374
6.19933	8375
6.20000	8376
6.20067	8377
6.20133	8378
6.20200	8379
6.20267	8380
6.20333	8381
6.20400	8382
6.20467	8383
6.20533	8384
6.20600	8386
6.20667	8387
6.20733	8388
6.20800	8390
6.20867	8391
6.20933	8393
6.21000	8394
6.21067	8396
6.21133	8397
6.21200	8399
6.21267	8401
6.21333	8402
6.21400	8404
6.21467	8406
6.21533	8407
6.21600	8409
6.21667	8411
6.21733	8413
6.21800	8415
6.21867	8417
6.21933	8419
6.22000	8421
6.22067	8423
6.22133	8426
6.22200	8428
6.22267	8430
6.22333	8432
6.22400	8435
6.22467	8437
6.22533	8439
6.22600	8442
6.22667	8444
6.22733	8447
6.22800	8449
6.22867	8452
6.22933	8454
6.23000	8457
6.23067	8459
6.23133	8462
6.23200	8465
6.23267	8468
6.23333	8470
6.23400	8473
6.23467	8476
6.23533	8479
6.23600	8482
6.23667	8485
6.23733	8487
6.23800	8490
6.23867	8493
6.23933	8496
6.24000	8499
6.24067	8502
6.24133	8505
6.24200	8508
6.24267	8511
6.24333	8514
6.24400	8517
6.24467	8519
6.24533	8522
6.24600	8525
6.24667	8528
6.24733	8531
6.24800	8534
6.24867	8537
6.24933	8540
6.25000	8543
6.25067	8545
6.25133	8548
6.25200	8551
6.25267	8554
6.25333	8557
6.25400	8559
6.25467	8562
6.25533	8564
6.25600	8567
6.25667	8570
6.25733	8572
6.25800	8575
6.25867	8577
6.25933	8580
6.26000	8582
6.26067	8585
6.26133	8587
6.26200	8589
6.26267	8592
6.26333	8594
6.26400	8596
6.26467	8598
6.26533	8600
6.26600	8602
6.26667	8604
6.26733	8606
6.26800	8608
6.26867	8610
6.26933	8611
6.27000	8613
6.27067	8614
6.27133	8615
6.27200	8617
6.27267	8618
6.27333	8619
6.27400	8620
6.27467	8621
6.27533	8622
6.27600	8623
6.27667	8624
6.27733	8625
6.27800	8625
6.27867	8626
6.27933	8627
6.28000	8627
6.28067	8628
6.28133	8628
6.28200	8628
6.28267	8629
6.28333	8629
6.28400	8629
6.28467	8629
6.28533	8629
6.28600	8629
6.28667	8629
6.28733	8629
6.28800	8629
6.28867	8629
6.28933	8628
6.29000	8628
6.29067	8627
6.29133	8627
6.29200	8626
6.29267	8625
6.29333	8625
6.29400	8624
6.29467	8623
6.29533	8623
6.29600	8622
6.29667	8621
6.29733	8620
6.29800	8619
6.29867	8618
6.29933	8616
6.30000	8615
6.30067	8614
6.30133	8612
6.30200	8611
6.30267	8609
6.30333	8607
6.30400	8606
6.30467	8604
6.30533	8602
6.30600	8600
6.30667	8598
6.30733	8596
6.30800	8593
6.30867	8591
6.30933	8589
6.31000	8586
6.31067	8584
6.31133	8581
6.31200	8579
6.31267	8576
6.31333	8574
6.31400	8571
6.31467	8568
6.31533	8565
6.31600	8563
6.31667	8560
6.31733	8557
6.31800	8554
6.31867	8550
6.31933	8547
6.32000	8544
6.32067	8541
6.32133	8538
6.32200	8534
6.32267	8531
6.32333	8527
6.32400	8524
6.32467	8520
6.32533	8517
6.32600	8513
6.32667	8510
6.32733	8506
6.32800	8502
6.32867	8499
6.32933	8495
6.33000	8491
6.33067	8487
6.33133	8484
6.33200	8480
6.33267	8476
6.33333	8472
6.33400	8468
6.33467	8464
6.33533	8460
6.33600	8457
6.33667	8453
6.33733	8449
6.33800	8445
6.33867	8441
6.33933	8437
6.34000	8433
6.34067	8429
6.34133	8426
6.34200	8422
6.34267	8418
6.34333	8414
6.34400	8410
6.34467	8406
6.34533	8402
6.34600	8399
6.34667	8395
6.34733	8391
6.34800	8387
6.34867	8384
6.34933	8380
6.35000	8376
6.35067	8372
6.35133	8369
6.35200	8365
6.35267	8361
6.35333	8358
6.35400	8354
6.35467	8350
6.35533	8346
6.35600	8343
6.35667	8339
6.35733	8335
6.35800	8332
6.35867	8328
6.35933	8324
6.36000	8321
6.36067	8317
6.36133	8313
6.36200	8309
6.36267	8306
6.36333	8302
6.36400	8298
6.36467	8295
6.36533	8291
6.36600	8287
6.36667	8283
6.36733	8280
6.36800	8276
6.36867	8272
6.36933	8268
6.37000	8264
6.37067	8261
6.37133	8257
6.37200	8253
6.37267	8250
6.37333	8246
6.37400	8242
6.37467	8239
6.37533	8235
6.37600	8231
6.37667	8227
6.37733	8224
6.37800	8220
6.37867	8216
6.37933	8213
6.38000	8209
6.38067	8205
6.38133	8202
6.38200	8198
6.38267	8194
6.38333	8191
6.38400	8187
6.38467	8183
6.38533	8180
6.38600	8176
6.38667	8173
6.38733	8169
6.38800	8166
6.38867	8162
6.38933	8159
6.39000	8155
6.39067	8152
6.39133	8148
6.39200	8145
6.39267	8142
6.39333	8138
6.39400	8135
6.39467	8132
6.39533	8128
6.39600	8125
6.39667	8122
6.39733	8119
6.39800	8115
6.39867	8112
6.39933	8109

