[Header]
Application Name	LabSolutions
Version	5.73
Data File Name	C:\LabSolutions\Data\Project1\stephen\2016-01-04\81.gcd
Output Date	1/5/2016
Output Time	4:51:44 PM

[Configuration]
Instrument Name	WEISSTA-PC-Instrument1
Instrument #	1
Line #	1
# of Detectors	1
Detector ID	DET#2
Detector Name	DFID1
# of Channels	1

[Chromatogram (Ch1)]
Interval(msec)	40
# of Points	9600
Start Time(min)	0.000
End Time(min)	6.400
R.Time (min)	Intensity
0.00033	-31
0.00100	-31
0.00167	-31
0.00233	-31
0.00300	-31
0.00367	-31
0.00433	-31
0.00500	-31
0.00567	-30
0.00633	-30
0.00700	-30
0.00767	-29
0.00833	-29
0.00900	-28
0.00967	-28
0.01033	-27
0.01100	-27
0.01167	-26
0.01233	-26
0.01300	-25
0.01367	-25
0.01433	-24
0.01500	-24
0.01567	-24
0.01633	-24
0.01700	-24
0.01767	-24
0.01833	-24
0.01900	-25
0.01967	-25
0.02033	-26
0.02100	-26
0.02167	-27
0.02233	-28
0.02300	-29
0.02367	-30
0.02433	-31
0.02500	-32
0.02567	-33
0.02633	-34
0.02700	-35
0.02767	-37
0.02833	-38
0.02900	-39
0.02967	-40
0.03033	-41
0.03100	-42
0.03167	-43
0.03233	-44
0.03300	-45
0.03367	-46
0.03433	-47
0.03500	-48
0.03567	-49
0.03633	-50
0.03700	-50
0.03767	-51
0.03833	-52
0.03900	-52
0.03967	-53
0.04033	-53
0.04100	-54
0.04167	-54
0.04233	-55
0.04300	-55
0.04367	-55
0.04433	-56
0.04500	-56
0.04567	-57
0.04633	-57
0.04700	-57
0.04767	-57
0.04833	-58
0.04900	-58
0.04967	-58
0.05033	-58
0.05100	-59
0.05167	-59
0.05233	-59
0.05300	-59
0.05367	-59
0.05433	-59
0.05500	-60
0.05567	-60
0.05633	-60
0.05700	-60
0.05767	-60
0.05833	-60
0.05900	-60
0.05967	-60
0.06033	-60
0.06100	-60
0.06167	-60
0.06233	-60
0.06300	-60
0.06367	-60
0.06433	-61
0.06500	-61
0.06567	-61
0.06633	-61
0.06700	-61
0.06767	-61
0.06833	-61
0.06900	-61
0.06967	-61
0.07033	-61
0.07100	-62
0.07167	-62
0.07233	-62
0.07300	-62
0.07367	-62
0.07433	-62
0.07500	-62
0.07567	-62
0.07633	-63
0.07700	-63
0.07767	-63
0.07833	-63
0.07900	-63
0.07967	-63
0.08033	-63
0.08100	-63
0.08167	-63
0.08233	-64
0.08300	-64
0.08367	-64
0.08433	-63
0.08500	-59
0.08567	-50
0.08633	-36
0.08700	-10
0.08767	35
0.08833	112
0.08900	217
0.08967	367
0.09033	569
0.09100	848
0.09167	1201
0.09233	1616
0.09300	2122
0.09367	2745
0.09433	3469
0.09500	4286
0.09567	5192
0.09633	6152
0.09700	7169
0.09767	8270
0.09833	9445
0.09900	10717
0.09967	12063
0.10033	13468
0.10100	14948
0.10167	16490
0.10233	18085
0.10300	19714
0.10367	21376
0.10433	23056
0.10500	24735
0.10567	26473
0.10633	28273
0.10700	30059
0.10767	31859
0.10833	33626
0.10900	35317
0.10967	36971
0.11033	38580
0.11100	40194
0.11167	41733
0.11233	43190
0.11300	44612
0.11367	45994
0.11433	47332
0.11500	48623
0.11567	49840
0.11633	50996
0.11700	52114
0.11767	53181
0.11833	54217
0.11900	55224
0.11967	56154
0.12033	57016
0.12100	57834
0.12167	58628
0.12233	59380
0.12300	60069
0.12367	60674
0.12433	61230
0.12500	61746
0.12567	62166
0.12633	62505
0.12700	62756
0.12767	62921
0.12833	63006
0.12900	63010
0.12967	62945
0.13033	62872
0.13100	63098
0.13167	64822
0.13233	71524
0.13300	91819
0.13367	142880
0.13433	256012
0.13500	473989
0.13567	845882
0.13633	1417605
0.13700	2228732
0.13767	3307112
0.13833	4671007
0.13900	6329047
0.13967	8284311
0.14033	10534192
0.14100	13074234
0.14167	15894356
0.14233	18974511
0.14300	22300203
0.14367	25881872
0.14433	29731925
0.14500	33847700
0.14567	38214313
0.14633	42810144
0.14700	47607485
0.14767	52577204
0.14833	57691161
0.14900	62923820
0.14967	68252328
0.15033	73655917
0.15100	79115733
0.15167	84614507
0.15233	90136584
0.15300	95667929
0.15367	101195889
0.15433	106708162
0.15500	112193268
0.15567	117640702
0.15633	123041141
0.15700	128386056
0.15767	133667737
0.15833	138878001
0.15900	144009391
0.15967	149054972
0.16033	154008899
0.16100	158865554
0.16167	163619403
0.16233	168265322
0.16300	172798717
0.16367	177215475
0.16433	181511754
0.16500	185683680
0.16567	189727557
0.16633	193639823
0.16700	197417374
0.16767	201056818
0.16833	204555113
0.16900	207909123
0.16967	211115904
0.17033	214171870
0.17100	217073670
0.17167	219816930
0.17233	222397913
0.17300	224812707
0.17367	227057646
0.17433	229128617
0.17500	231022172
0.17567	232735468
0.17633	234266537
0.17700	235614304
0.17767	236778505
0.17833	237759669
0.17900	238558866
0.17967	239177973
0.18033	239619300
0.18100	239885735
0.18167	239980565
0.18233	239907657
0.18300	239671172
0.18367	239275827
0.18433	238726429
0.18500	238028104
0.18567	237185835
0.18633	236204865
0.18700	235090369
0.18767	233847801
0.18833	232482637
0.18900	231000497
0.18967	229406844
0.19033	227707126
0.19100	225906710
0.19167	224010973
0.19233	222025331
0.19300	219955341
0.19367	217806524
0.19433	215584476
0.19500	213294772
0.19567	210942799
0.19633	208533900
0.19700	206073588
0.19767	203567744
0.19833	201022104
0.19900	198441601
0.19967	195830076
0.20033	193190624
0.20100	190525808
0.20167	187838034
0.20233	185129627
0.20300	182403075
0.20367	179660884
0.20433	176905710
0.20500	174140265
0.20567	171367308
0.20633	168589544
0.20700	165809645
0.20767	163030220
0.20833	160253810
0.20900	157482893
0.20967	154719855
0.21033	151967000
0.21100	149226506
0.21167	146500464
0.21233	143790833
0.21300	141099468
0.21367	138428094
0.21433	135778349
0.21500	133151750
0.21567	130549739
0.21633	127973632
0.21700	125424641
0.21767	122903855
0.21833	120412270
0.21900	117950790
0.21967	115520242
0.22033	113121349
0.22100	110754745
0.22167	108420992
0.22233	106120583
0.22300	103853943
0.22367	101621421
0.22433	99423298
0.22500	97259800
0.22567	95131110
0.22633	93037352
0.22700	90978599
0.22767	88954868
0.22833	86966136
0.22900	85012334
0.22967	83093359
0.23033	81209073
0.23100	79359302
0.23167	77543835
0.23233	75762430
0.23300	74014808
0.23367	72300678
0.23433	70619724
0.23500	68971614
0.23567	67356000
0.23633	65772517
0.23700	64220783
0.23767	62700400
0.23833	61210962
0.23900	59752053
0.23967	58323253
0.24033	56924135
0.24100	55554266
0.24167	54213202
0.24233	52900505
0.24300	51615730
0.24367	50358441
0.24433	49128197
0.24500	47924560
0.24567	46747087
0.24633	45595339
0.24700	44468874
0.24767	43367258
0.24833	42290055
0.24900	41236834
0.24967	40207165
0.25033	39200623
0.25100	38216791
0.25167	37255254
0.25233	36315602
0.25300	35397425
0.25367	34500322
0.25433	33623897
0.25500	32767760
0.25567	31931525
0.25633	31114810
0.25700	30317238
0.25767	29538441
0.25833	28778054
0.25900	28035721
0.25967	27311084
0.26033	26603794
0.26100	25913505
0.26167	25239876
0.26233	24582571
0.26300	23941260
0.26367	23315615
0.26433	22705316
0.26500	22110044
0.26567	21529489
0.26633	20963341
0.26700	20411297
0.26767	19873062
0.26833	19348342
0.26900	18836851
0.26967	18338307
0.27033	17852434
0.27100	17378960
0.27167	16917618
0.27233	16468146
0.27300	16030286
0.27367	15603787
0.27433	15188403
0.27500	14783893
0.27567	14390023
0.27633	14006561
0.27700	13633284
0.27767	13269974
0.27833	12916417
0.27900	12572406
0.27967	12237738
0.28033	11912216
0.28100	11595646
0.28167	11287843
0.28233	10988623
0.28300	10697810
0.28367	10415233
0.28433	10140725
0.28500	9874126
0.28567	9615281
0.28633	9364043
0.28700	9120275
0.28767	8883851
0.28833	8654654
0.28900	8432580
0.28967	8217540
0.29033	8009457
0.29100	7808259
0.29167	7613889
0.29233	7426292
0.29300	7245416
0.29367	7071202
0.29433	6903583
0.29500	6742476
0.29567	6587800
0.29633	6439452
0.29700	6297322
0.29767	6161280
0.29833	6031187
0.29900	5906889
0.29967	5788221
0.30033	5675012
0.30100	5567091
0.30167	5464278
0.30233	5366393
0.30300	5273250
0.30367	5184657
0.30433	5100425
0.30500	5020367
0.30567	4944300
0.30633	4872044
0.30700	4803418
0.30767	4738248
0.30833	4676359
0.30900	4617582
0.30967	4561756
0.31033	4508723
0.31100	4458334
0.31167	4410447
0.31233	4364927
0.31300	4321651
0.31367	4280509
0.31433	4241399
0.31500	4204222
0.31567	4168885
0.31633	4135295
0.31700	4103359
0.31767	4072977
0.31833	4044045
0.31900	4016457
0.31967	3990099
0.32033	3964859
0.32100	3940625
0.32167	3917286
0.32233	3894734
0.32300	3872858
0.32367	3851545
0.32433	3830679
0.32500	3810129
0.32567	3789759
0.32633	3769424
0.32700	3748975
0.32767	3728265
0.32833	3707147
0.32900	3685477
0.32967	3663119
0.33033	3639948
0.33100	3615851
0.33167	3590730
0.33233	3564494
0.33300	3537074
0.33367	3508414
0.33433	3478478
0.33500	3447247
0.33567	3414720
0.33633	3380913
0.33700	3345858
0.33767	3309601
0.33833	3272199
0.33900	3233719
0.33967	3194237
0.34033	3153831
0.34100	3112584
0.34167	3070580
0.34233	3027902
0.34300	2984633
0.34367	2940855
0.34433	2896648
0.34500	2852088
0.34567	2807248
0.34633	2762200
0.34700	2717010
0.34767	2671743
0.34833	2626460
0.34900	2581219
0.34967	2536072
0.35033	2491070
0.35100	2446258
0.35167	2401681
0.35233	2357378
0.35300	2313387
0.35367	2269742
0.35433	2226475
0.35500	2183615
0.35567	2141187
0.35633	2099216
0.35700	2057724
0.35767	2016729
0.35833	1976249
0.35900	1936301
0.35967	1896897
0.36033	1858050
0.36100	1819771
0.36167	1782068
0.36233	1744949
0.36300	1708419
0.36367	1672484
0.36433	1637149
0.36500	1602417
0.36567	1568291
0.36633	1534773
0.36700	1501864
0.36767	1469564
0.36833	1437871
0.36900	1406784
0.36967	1376298
0.37033	1346412
0.37100	1317120
0.37167	1288418
0.37233	1260300
0.37300	1232763
0.37367	1205799
0.37433	1179402
0.37500	1153567
0.37567	1128285
0.37633	1103551
0.37700	1079356
0.37767	1055694
0.37833	1032557
0.37900	1009936
0.37967	987823
0.38033	966210
0.38100	945088
0.38167	924447
0.38233	904281
0.38300	884580
0.38367	865340
0.38433	846554
0.38500	828215
0.38567	810318
0.38633	792855
0.38700	775820
0.38767	759207
0.38833	743009
0.38900	727221
0.38967	711838
0.39033	696854
0.39100	682266
0.39167	668072
0.39233	654269
0.39300	640857
0.39367	627833
0.39433	615196
0.39500	602939
0.39567	591055
0.39633	579534
0.39700	568366
0.39767	557542
0.39833	547053
0.39900	536887
0.39967	527036
0.40033	517488
0.40100	508234
0.40167	499262
0.40233	490564
0.40300	482130
0.40367	473950
0.40433	466015
0.40500	458317
0.40567	450848
0.40633	443599
0.40700	436563
0.40767	429733
0.40833	423100
0.40900	416658
0.40967	410401
0.41033	404322
0.41100	398415
0.41167	392675
0.41233	387095
0.41300	381670
0.41367	376396
0.41433	371266
0.41500	366276
0.41567	361422
0.41633	356698
0.41700	352100
0.41767	347624
0.41833	343266
0.41900	339020
0.41967	334883
0.42033	330852
0.42100	326922
0.42167	323090
0.42233	319353
0.42300	315707
0.42367	312149
0.42433	308676
0.42500	305285
0.42567	301973
0.42633	298737
0.42700	295576
0.42767	292486
0.42833	289464
0.42900	286508
0.42967	283616
0.43033	280786
0.43100	278015
0.43167	275302
0.43233	272644
0.43300	270040
0.43367	267488
0.43433	264986
0.43500	262532
0.43567	260125
0.43633	257763
0.43700	255445
0.43767	253169
0.43833	250934
0.43900	248740
0.43967	246583
0.44033	244464
0.44100	242380
0.44167	240332
0.44233	238317
0.44300	236334
0.44367	234383
0.44433	232464
0.44500	230574
0.44567	228713
0.44633	226879
0.44700	225073
0.44767	223292
0.44833	221537
0.44900	219806
0.44967	218098
0.45033	216413
0.45100	214751
0.45167	213110
0.45233	211489
0.45300	209889
0.45367	208308
0.45433	206747
0.45500	205204
0.45567	203679
0.45633	202172
0.45700	200682
0.45767	199209
0.45833	197752
0.45900	196312
0.45967	194888
0.46033	193480
0.46100	192088
0.46167	190711
0.46233	189349
0.46300	188002
0.46367	186671
0.46433	185354
0.46500	184053
0.46567	182767
0.46633	181495
0.46700	180238
0.46767	178996
0.46833	177768
0.46900	176555
0.46967	175357
0.47033	174172
0.47100	173001
0.47167	171843
0.47233	170699
0.47300	169569
0.47367	168451
0.47433	167346
0.47500	166253
0.47567	165173
0.47633	164105
0.47700	163048
0.47767	162002
0.47833	160968
0.47900	159945
0.47967	158932
0.48033	157930
0.48100	156937
0.48167	155955
0.48233	154982
0.48300	154019
0.48367	153065
0.48433	152120
0.48500	151184
0.48567	150257
0.48633	149338
0.48700	148428
0.48767	147526
0.48833	146632
0.48900	145745
0.48967	144867
0.49033	143996
0.49100	143132
0.49167	142275
0.49233	141426
0.49300	140583
0.49367	139748
0.49433	138919
0.49500	138097
0.49567	137281
0.49633	136472
0.49700	135670
0.49767	134873
0.49833	134083
0.49900	133298
0.49967	132520
0.50033	131747
0.50100	130980
0.50167	130219
0.50233	129463
0.50300	128714
0.50367	127970
0.50433	127231
0.50500	126498
0.50567	125771
0.50633	125050
0.50700	124334
0.50767	123624
0.50833	122919
0.50900	122220
0.50967	121526
0.51033	120838
0.51100	120155
0.51167	119477
0.51233	118804
0.51300	118137
0.51367	117475
0.51433	116818
0.51500	116165
0.51567	115517
0.51633	114874
0.51700	114236
0.51767	113602
0.51833	112973
0.51900	112348
0.51967	111728
0.52033	111112
0.52100	110501
0.52167	109893
0.52233	109291
0.52300	108692
0.52367	108098
0.52433	107508
0.52500	106922
0.52567	106340
0.52633	105762
0.52700	105189
0.52767	104619
0.52833	104054
0.52900	103493
0.52967	102936
0.53033	102382
0.53100	101833
0.53167	101288
0.53233	100747
0.53300	100210
0.53367	99677
0.53433	99147
0.53500	98622
0.53567	98100
0.53633	97582
0.53700	97068
0.53767	96558
0.53833	96052
0.53900	95549
0.53967	95050
0.54033	94555
0.54100	94064
0.54167	93577
0.54233	93093
0.54300	92613
0.54367	92136
0.54433	91663
0.54500	91194
0.54567	90728
0.54633	90266
0.54700	89808
0.54767	89353
0.54833	88902
0.54900	88454
0.54967	88009
0.55033	87568
0.55100	87130
0.55167	86696
0.55233	86265
0.55300	85838
0.55367	85414
0.55433	84993
0.55500	84575
0.55567	84160
0.55633	83749
0.55700	83342
0.55767	82937
0.55833	82536
0.55900	82138
0.55967	81743
0.56033	81351
0.56100	80963
0.56167	80578
0.56233	80197
0.56300	79819
0.56367	79445
0.56433	79074
0.56500	78707
0.56567	78344
0.56633	77985
0.56700	77629
0.56767	77278
0.56833	76930
0.56900	76586
0.56967	76247
0.57033	75912
0.57100	75580
0.57167	75253
0.57233	74930
0.57300	74611
0.57367	74296
0.57433	73984
0.57500	73676
0.57567	73371
0.57633	73070
0.57700	72772
0.57767	72477
0.57833	72184
0.57900	71895
0.57967	71607
0.58033	71322
0.58100	71039
0.58167	70757
0.58233	70478
0.58300	70200
0.58367	69924
0.58433	69650
0.58500	69377
0.58567	69105
0.58633	68835
0.58700	68566
0.58767	68298
0.58833	68031
0.58900	67766
0.58967	67502
0.59033	67239
0.59100	66978
0.59167	66717
0.59233	66458
0.59300	66200
0.59367	65942
0.59433	65686
0.59500	65431
0.59567	65177
0.59633	64924
0.59700	64672
0.59767	64422
0.59833	64172
0.59900	63923
0.59967	63676
0.60033	63429
0.60100	63184
0.60167	62939
0.60233	62696
0.60300	62454
0.60367	62213
0.60433	61973
0.60500	61734
0.60567	61496
0.60633	61260
0.60700	61024
0.60767	60790
0.60833	60557
0.60900	60325
0.60967	60094
0.61033	59864
0.61100	59636
0.61167	59408
0.61233	59182
0.61300	58957
0.61367	58733
0.61433	58510
0.61500	58288
0.61567	58067
0.61633	57847
0.61700	57628
0.61767	57410
0.61833	57194
0.61900	56979
0.61967	56764
0.62033	56551
0.62100	56340
0.62167	56129
0.62233	55920
0.62300	55712
0.62367	55506
0.62433	55301
0.62500	55098
0.62567	54896
0.62633	54697
0.62700	54498
0.62767	54302
0.62833	54107
0.62900	53914
0.62967	53723
0.63033	53533
0.63100	53346
0.63167	53160
0.63233	52976
0.63300	52793
0.63367	52613
0.63433	52434
0.63500	52257
0.63567	52081
0.63633	51907
0.63700	51735
0.63767	51563
0.63833	51393
0.63900	51225
0.63967	51057
0.64033	50891
0.64100	50726
0.64167	50562
0.64233	50398
0.64300	50236
0.64367	50075
0.64433	49915
0.64500	49756
0.64567	49598
0.64633	49441
0.64700	49285
0.64767	49130
0.64833	48976
0.64900	48824
0.64967	48673
0.65033	48524
0.65100	48376
0.65167	48229
0.65233	48084
0.65300	47941
0.65367	47799
0.65433	47659
0.65500	47520
0.65567	47383
0.65633	47247
0.65700	47113
0.65767	46980
0.65833	46849
0.65900	46719
0.65967	46591
0.66033	46463
0.66100	46337
0.66167	46212
0.66233	46088
0.66300	45965
0.66367	45842
0.66433	45721
0.66500	45600
0.66567	45479
0.66633	45360
0.66700	45240
0.66767	45121
0.66833	45003
0.66900	44884
0.66967	44766
0.67033	44648
0.67100	44531
0.67167	44414
0.67233	44297
0.67300	44180
0.67367	44064
0.67433	43948
0.67500	43832
0.67567	43717
0.67633	43602
0.67700	43487
0.67767	43373
0.67833	43259
0.67900	43147
0.67967	43034
0.68033	42923
0.68100	42812
0.68167	42703
0.68233	42594
0.68300	42486
0.68367	42380
0.68433	42276
0.68500	42174
0.68567	42074
0.68633	41977
0.68700	41883
0.68767	41793
0.68833	41708
0.68900	41629
0.68967	41556
0.69033	41492
0.69100	41437
0.69167	41393
0.69233	41361
0.69300	41344
0.69367	41344
0.69433	41362
0.69500	41400
0.69567	41460
0.69633	41543
0.69700	41651
0.69767	41786
0.69833	41948
0.69900	42139
0.69967	42358
0.70033	42606
0.70100	42882
0.70167	43187
0.70233	43518
0.70300	43874
0.70367	44254
0.70433	44655
0.70500	45074
0.70567	45508
0.70633	45955
0.70700	46411
0.70767	46872
0.70833	47335
0.70900	47796
0.70967	48252
0.71033	48700
0.71100	49138
0.71167	49561
0.71233	49968
0.71300	50357
0.71367	50724
0.71433	51068
0.71500	51387
0.71567	51681
0.71633	51948
0.71700	52188
0.71767	52400
0.71833	52586
0.71900	52744
0.71967	52876
0.72033	52982
0.72100	53062
0.72167	53118
0.72233	53150
0.72300	53159
0.72367	53147
0.72433	53113
0.72500	53060
0.72567	52988
0.72633	52899
0.72700	52793
0.72767	52671
0.72833	52535
0.72900	52384
0.72967	52221
0.73033	52046
0.73100	51859
0.73167	51662
0.73233	51456
0.73300	51241
0.73367	51017
0.73433	50786
0.73500	50548
0.73567	50304
0.73633	50054
0.73700	49799
0.73767	49540
0.73833	49276
0.73900	49009
0.73967	48738
0.74033	48465
0.74100	48190
0.74167	47912
0.74233	47634
0.74300	47353
0.74367	47073
0.74433	46791
0.74500	46510
0.74567	46228
0.74633	45947
0.74700	45666
0.74767	45386
0.74833	45107
0.74900	44829
0.74967	44552
0.75033	44277
0.75100	44004
0.75167	43733
0.75233	43464
0.75300	43197
0.75367	42932
0.75433	42670
0.75500	42410
0.75567	42153
0.75633	41899
0.75700	41647
0.75767	41398
0.75833	41153
0.75900	40911
0.75967	40671
0.76033	40435
0.76100	40203
0.76167	39973
0.76233	39748
0.76300	39525
0.76367	39306
0.76433	39091
0.76500	38879
0.76567	38671
0.76633	38466
0.76700	38265
0.76767	38067
0.76833	37873
0.76900	37683
0.76967	37496
0.77033	37312
0.77100	37132
0.77167	36956
0.77233	36783
0.77300	36614
0.77367	36447
0.77433	36284
0.77500	36125
0.77567	35968
0.77633	35814
0.77700	35663
0.77767	35515
0.77833	35370
0.77900	35228
0.77967	35088
0.78033	34950
0.78100	34815
0.78167	34682
0.78233	34552
0.78300	34423
0.78367	34297
0.78433	34173
0.78500	34050
0.78567	33930
0.78633	33811
0.78700	33694
0.78767	33578
0.78833	33464
0.78900	33352
0.78967	33240
0.79033	33130
0.79100	33022
0.79167	32914
0.79233	32808
0.79300	32704
0.79367	32600
0.79433	32498
0.79500	32396
0.79567	32296
0.79633	32197
0.79700	32099
0.79767	32002
0.79833	31906
0.79900	31811
0.79967	31717
0.80033	31624
0.80100	31532
0.80167	31441
0.80233	31350
0.80300	31261
0.80367	31172
0.80433	31085
0.80500	30998
0.80567	30912
0.80633	30826
0.80700	30742
0.80767	30658
0.80833	30575
0.80900	30493
0.80967	30412
0.81033	30331
0.81100	30251
0.81167	30172
0.81233	30093
0.81300	30015
0.81367	29938
0.81433	29862
0.81500	29786
0.81567	29711
0.81633	29637
0.81700	29564
0.81767	29491
0.81833	29419
0.81900	29347
0.81967	29277
0.82033	29207
0.82100	29137
0.82167	29069
0.82233	29000
0.82300	28933
0.82367	28866
0.82433	28800
0.82500	28735
0.82567	28670
0.82633	28606
0.82700	28543
0.82767	28480
0.82833	28418
0.82900	28356
0.82967	28295
0.83033	28235
0.83100	28176
0.83167	28117
0.83233	28058
0.83300	28000
0.83367	27943
0.83433	27886
0.83500	27830
0.83567	27774
0.83633	27719
0.83700	27665
0.83767	27611
0.83833	27557
0.83900	27504
0.83967	27452
0.84033	27400
0.84100	27349
0.84167	27298
0.84233	27247
0.84300	27198
0.84367	27148
0.84433	27100
0.84500	27051
0.84567	27003
0.84633	26956
0.84700	26909
0.84767	26862
0.84833	26816
0.84900	26771
0.84967	26725
0.85033	26680
0.85100	26636
0.85167	26592
0.85233	26548
0.85300	26504
0.85367	26461
0.85433	26419
0.85500	26376
0.85567	26334
0.85633	26293
0.85700	26251
0.85767	26210
0.85833	26170
0.85900	26130
0.85967	26090
0.86033	26050
0.86100	26011
0.86167	25971
0.86233	25933
0.86300	25894
0.86367	25856
0.86433	25818
0.86500	25780
0.86567	25742
0.86633	25705
0.86700	25668
0.86767	25631
0.86833	25594
0.86900	25557
0.86967	25521
0.87033	25485
0.87100	25449
0.87167	25413
0.87233	25377
0.87300	25342
0.87367	25307
0.87433	25272
0.87500	25237
0.87567	25202
0.87633	25167
0.87700	25132
0.87767	25098
0.87833	25064
0.87900	25030
0.87967	24996
0.88033	24962
0.88100	24929
0.88167	24895
0.88233	24862
0.88300	24829
0.88367	24796
0.88433	24763
0.88500	24731
0.88567	24698
0.88633	24666
0.88700	24634
0.88767	24603
0.88833	24571
0.88900	24539
0.88967	24508
0.89033	24477
0.89100	24445
0.89167	24414
0.89233	24384
0.89300	24353
0.89367	24322
0.89433	24292
0.89500	24262
0.89567	24232
0.89633	24202
0.89700	24172
0.89767	24142
0.89833	24113
0.89900	24083
0.89967	24054
0.90033	24025
0.90100	23996
0.90167	23967
0.90233	23938
0.90300	23910
0.90367	23881
0.90433	23852
0.90500	23824
0.90567	23796
0.90633	23767
0.90700	23739
0.90767	23711
0.90833	23683
0.90900	23656
0.90967	23628
0.91033	23600
0.91100	23573
0.91167	23546
0.91233	23518
0.91300	23491
0.91367	23464
0.91433	23437
0.91500	23411
0.91567	23384
0.91633	23358
0.91700	23331
0.91767	23305
0.91833	23279
0.91900	23252
0.91967	23227
0.92033	23201
0.92100	23175
0.92167	23149
0.92233	23124
0.92300	23098
0.92367	23073
0.92433	23048
0.92500	23023
0.92567	22998
0.92633	22974
0.92700	22949
0.92767	22925
0.92833	22901
0.92900	22877
0.92967	22853
0.93033	22829
0.93100	22806
0.93167	22782
0.93233	22760
0.93300	22737
0.93367	22714
0.93433	22692
0.93500	22670
0.93567	22648
0.93633	22626
0.93700	22605
0.93767	22584
0.93833	22563
0.93900	22542
0.93967	22521
0.94033	22500
0.94100	22480
0.94167	22459
0.94233	22439
0.94300	22418
0.94367	22398
0.94433	22378
0.94500	22358
0.94567	22337
0.94633	22317
0.94700	22297
0.94767	22277
0.94833	22256
0.94900	22236
0.94967	22216
0.95033	22195
0.95100	22175
0.95167	22155
0.95233	22134
0.95300	22114
0.95367	22093
0.95433	22073
0.95500	22053
0.95567	22032
0.95633	22012
0.95700	21992
0.95767	21971
0.95833	21951
0.95900	21931
0.95967	21911
0.96033	21892
0.96100	21872
0.96167	21852
0.96233	21833
0.96300	21813
0.96367	21794
0.96433	21775
0.96500	21756
0.96567	21737
0.96633	21718
0.96700	21699
0.96767	21680
0.96833	21662
0.96900	21643
0.96967	21624
0.97033	21605
0.97100	21587
0.97167	21568
0.97233	21549
0.97300	21530
0.97367	21511
0.97433	21492
0.97500	21473
0.97567	21453
0.97633	21434
0.97700	21414
0.97767	21394
0.97833	21374
0.97900	21354
0.97967	21334
0.98033	21313
0.98100	21293
0.98167	21272
0.98233	21251
0.98300	21230
0.98367	21209
0.98433	21188
0.98500	21166
0.98567	21144
0.98633	21123
0.98700	21101
0.98767	21079
0.98833	21057
0.98900	21035
0.98967	21013
0.99033	20991
0.99100	20969
0.99167	20947
0.99233	20925
0.99300	20903
0.99367	20881
0.99433	20858
0.99500	20836
0.99567	20814
0.99633	20792
0.99700	20770
0.99767	20748
0.99833	20727
0.99900	20705
0.99967	20683
1.00033	20661
1.00100	20639
1.00167	20618
1.00233	20596
1.00300	20575
1.00367	20553
1.00433	20532
1.00500	20511
1.00567	20489
1.00633	20468
1.00700	20448
1.00767	20427
1.00833	20406
1.00900	20386
1.00967	20365
1.01033	20345
1.01100	20325
1.01167	20306
1.01233	20287
1.01300	20267
1.01367	20249
1.01433	20230
1.01500	20212
1.01567	20194
1.01633	20176
1.01700	20159
1.01767	20142
1.01833	20126
1.01900	20110
1.01967	20095
1.02033	20080
1.02100	20065
1.02167	20051
1.02233	20038
1.02300	20025
1.02367	20013
1.02433	20001
1.02500	19989
1.02567	19978
1.02633	19967
1.02700	19957
1.02767	19947
1.02833	19938
1.02900	19928
1.02967	19919
1.03033	19911
1.03100	19902
1.03167	19893
1.03233	19885
1.03300	19877
1.03367	19868
1.03433	19860
1.03500	19851
1.03567	19843
1.03633	19834
1.03700	19825
1.03767	19816
1.03833	19807
1.03900	19797
1.03967	19787
1.04033	19777
1.04100	19767
1.04167	19756
1.04233	19745
1.04300	19733
1.04367	19721
1.04433	19709
1.04500	19696
1.04567	19683
1.04633	19670
1.04700	19656
1.04767	19642
1.04833	19628
1.04900	19613
1.04967	19599
1.05033	19583
1.05100	19568
1.05167	19552
1.05233	19536
1.05300	19520
1.05367	19503
1.05433	19487
1.05500	19470
1.05567	19452
1.05633	19435
1.05700	19418
1.05767	19400
1.05833	19382
1.05900	19364
1.05967	19346
1.06033	19328
1.06100	19310
1.06167	19292
1.06233	19274
1.06300	19255
1.06367	19237
1.06433	19218
1.06500	19199
1.06567	19181
1.06633	19162
1.06700	19143
1.06767	19125
1.06833	19106
1.06900	19087
1.06967	19069
1.07033	19050
1.07100	19032
1.07167	19013
1.07233	18995
1.07300	18976
1.07367	18958
1.07433	18940
1.07500	18921
1.07567	18903
1.07633	18885
1.07700	18868
1.07767	18850
1.07833	18832
1.07900	18814
1.07967	18797
1.08033	18779
1.08100	18762
1.08167	18745
1.08233	18728
1.08300	18711
1.08367	18694
1.08433	18677
1.08500	18660
1.08567	18644
1.08633	18627
1.08700	18611
1.08767	18595
1.08833	18579
1.08900	18563
1.08967	18547
1.09033	18531
1.09100	18516
1.09167	18501
1.09233	18485
1.09300	18470
1.09367	18455
1.09433	18440
1.09500	18426
1.09567	18411
1.09633	18397
1.09700	18383
1.09767	18369
1.09833	18355
1.09900	18341
1.09967	18328
1.10033	18315
1.10100	18301
1.10167	18289
1.10233	18276
1.10300	18263
1.10367	18251
1.10433	18239
1.10500	18227
1.10567	18216
1.10633	18204
1.10700	18194
1.10767	18183
1.10833	18172
1.10900	18162
1.10967	18152
1.11033	18142
1.11100	18132
1.11167	18123
1.11233	18114
1.11300	18105
1.11367	18096
1.11433	18087
1.11500	18078
1.11567	18069
1.11633	18060
1.11700	18052
1.11767	18043
1.11833	18034
1.11900	18026
1.11967	18017
1.12033	18008
1.12100	18000
1.12167	17991
1.12233	17982
1.12300	17973
1.12367	17964
1.12433	17955
1.12500	17947
1.12567	17938
1.12633	17929
1.12700	17920
1.12767	17910
1.12833	17901
1.12900	17892
1.12967	17882
1.13033	17873
1.13100	17864
1.13167	17854
1.13233	17844
1.13300	17835
1.13367	17825
1.13433	17815
1.13500	17805
1.13567	17795
1.13633	17785
1.13700	17774
1.13767	17764
1.13833	17754
1.13900	17743
1.13967	17732
1.14033	17722
1.14100	17711
1.14167	17700
1.14233	17689
1.14300	17678
1.14367	17667
1.14433	17656
1.14500	17645
1.14567	17633
1.14633	17622
1.14700	17610
1.14767	17599
1.14833	17587
1.14900	17576
1.14967	17564
1.15033	17552
1.15100	17540
1.15167	17528
1.15233	17516
1.15300	17505
1.15367	17493
1.15433	17480
1.15500	17468
1.15567	17456
1.15633	17444
1.15700	17432
1.15767	17420
1.15833	17408
1.15900	17396
1.15967	17384
1.16033	17372
1.16100	17360
1.16167	17348
1.16233	17336
1.16300	17324
1.16367	17312
1.16433	17300
1.16500	17289
1.16567	17277
1.16633	17265
1.16700	17254
1.16767	17242
1.16833	17231
1.16900	17219
1.16967	17208
1.17033	17196
1.17100	17185
1.17167	17174
1.17233	17163
1.17300	17152
1.17367	17141
1.17433	17130
1.17500	17120
1.17567	17109
1.17633	17098
1.17700	17088
1.17767	17077
1.17833	17067
1.17900	17057
1.17967	17047
1.18033	17037
1.18100	17027
1.18167	17017
1.18233	17007
1.18300	16997
1.18367	16988
1.18433	16978
1.18500	16969
1.18567	16960
1.18633	16950
1.18700	16942
1.18767	16933
1.18833	16924
1.18900	16915
1.18967	16907
1.19033	16899
1.19100	16890
1.19167	16882
1.19233	16874
1.19300	16866
1.19367	16859
1.19433	16851
1.19500	16844
1.19567	16836
1.19633	16829
1.19700	16822
1.19767	16815
1.19833	16809
1.19900	16802
1.19967	16795
1.20033	16789
1.20100	16782
1.20167	16776
1.20233	16770
1.20300	16764
1.20367	16758
1.20433	16752
1.20500	16746
1.20567	16741
1.20633	16735
1.20700	16730
1.20767	16725
1.20833	16720
1.20900	16715
1.20967	16710
1.21033	16705
1.21100	16701
1.21167	16696
1.21233	16692
1.21300	16688
1.21367	16683
1.21433	16679
1.21500	16675
1.21567	16671
1.21633	16667
1.21700	16664
1.21767	16660
1.21833	16656
1.21900	16653
1.21967	16650
1.22033	16646
1.22100	16643
1.22167	16640
1.22233	16637
1.22300	16634
1.22367	16631
1.22433	16628
1.22500	16626
1.22567	16623
1.22633	16620
1.22700	16618
1.22767	16615
1.22833	16613
1.22900	16611
1.22967	16609
1.23033	16607
1.23100	16605
1.23167	16603
1.23233	16601
1.23300	16599
1.23367	16598
1.23433	16596
1.23500	16595
1.23567	16594
1.23633	16593
1.23700	16592
1.23767	16591
1.23833	16590
1.23900	16589
1.23967	16589
1.24033	16588
1.24100	16588
1.24167	16588
1.24233	16588
1.24300	16588
1.24367	16589
1.24433	16589
1.24500	16590
1.24567	16592
1.24633	16593
1.24700	16595
1.24767	16597
1.24833	16600
1.24900	16603
1.24967	16606
1.25033	16610
1.25100	16615
1.25167	16620
1.25233	16625
1.25300	16631
1.25367	16637
1.25433	16644
1.25500	16651
1.25567	16659
1.25633	16667
1.25700	16676
1.25767	16685
1.25833	16694
1.25900	16704
1.25967	16713
1.26033	16723
1.26100	16733
1.26167	16743
1.26233	16753
1.26300	16763
1.26367	16773
1.26433	16783
1.26500	16792
1.26567	16801
1.26633	16810
1.26700	16818
1.26767	16827
1.26833	16834
1.26900	16841
1.26967	16848
1.27033	16854
1.27100	16859
1.27167	16864
1.27233	16869
1.27300	16872
1.27367	16876
1.27433	16878
1.27500	16880
1.27567	16881
1.27633	16882
1.27700	16881
1.27767	16881
1.27833	16879
1.27900	16878
1.27967	16875
1.28033	16872
1.28100	16869
1.28167	16864
1.28233	16860
1.28300	16855
1.28367	16849
1.28433	16843
1.28500	16837
1.28567	16830
1.28633	16822
1.28700	16815
1.28767	16806
1.28833	16798
1.28900	16789
1.28967	16780
1.29033	16770
1.29100	16761
1.29167	16750
1.29233	16740
1.29300	16729
1.29367	16719
1.29433	16707
1.29500	16696
1.29567	16685
1.29633	16673
1.29700	16661
1.29767	16649
1.29833	16637
1.29900	16624
1.29967	16612
1.30033	16599
1.30100	16587
1.30167	16574
1.30233	16561
1.30300	16548
1.30367	16534
1.30433	16521
1.30500	16508
1.30567	16494
1.30633	16480
1.30700	16467
1.30767	16453
1.30833	16439
1.30900	16425
1.30967	16411
1.31033	16397
1.31100	16383
1.31167	16369
1.31233	16355
1.31300	16340
1.31367	16326
1.31433	16312
1.31500	16297
1.31567	16283
1.31633	16268
1.31700	16254
1.31767	16239
1.31833	16225
1.31900	16210
1.31967	16195
1.32033	16181
1.32100	16166
1.32167	16151
1.32233	16136
1.32300	16121
1.32367	16106
1.32433	16091
1.32500	16076
1.32567	16062
1.32633	16047
1.32700	16032
1.32767	16017
1.32833	16002
1.32900	15987
1.32967	15972
1.33033	15958
1.33100	15943
1.33167	15928
1.33233	15914
1.33300	15899
1.33367	15885
1.33433	15870
1.33500	15856
1.33567	15842
1.33633	15828
1.33700	15813
1.33767	15799
1.33833	15785
1.33900	15771
1.33967	15757
1.34033	15743
1.34100	15729
1.34167	15715
1.34233	15702
1.34300	15688
1.34367	15675
1.34433	15661
1.34500	15648
1.34567	15635
1.34633	15621
1.34700	15608
1.34767	15595
1.34833	15582
1.34900	15569
1.34967	15557
1.35033	15544
1.35100	15531
1.35167	15519
1.35233	15506
1.35300	15494
1.35367	15482
1.35433	15470
1.35500	15457
1.35567	15445
1.35633	15433
1.35700	15421
1.35767	15409
1.35833	15398
1.35900	15386
1.35967	15375
1.36033	15363
1.36100	15352
1.36167	15341
1.36233	15330
1.36300	15319
1.36367	15308
1.36433	15297
1.36500	15286
1.36567	15275
1.36633	15264
1.36700	15254
1.36767	15243
1.36833	15233
1.36900	15223
1.36967	15212
1.37033	15202
1.37100	15192
1.37167	15182
1.37233	15172
1.37300	15162
1.37367	15153
1.37433	15143
1.37500	15133
1.37567	15124
1.37633	15114
1.37700	15105
1.37767	15096
1.37833	15087
1.37900	15077
1.37967	15068
1.38033	15059
1.38100	15050
1.38167	15041
1.38233	15033
1.38300	15024
1.38367	15015
1.38433	15007
1.38500	14998
1.38567	14990
1.38633	14981
1.38700	14973
1.38767	14965
1.38833	14957
1.38900	14948
1.38967	14940
1.39033	14932
1.39100	14924
1.39167	14916
1.39233	14908
1.39300	14900
1.39367	14892
1.39433	14884
1.39500	14876
1.39567	14868
1.39633	14860
1.39700	14852
1.39767	14844
1.39833	14836
1.39900	14828
1.39967	14820
1.40033	14812
1.40100	14804
1.40167	14796
1.40233	14788
1.40300	14780
1.40367	14773
1.40433	14765
1.40500	14757
1.40567	14749
1.40633	14741
1.40700	14733
1.40767	14726
1.40833	14718
1.40900	14710
1.40967	14702
1.41033	14694
1.41100	14687
1.41167	14679
1.41233	14671
1.41300	14663
1.41367	14656
1.41433	14648
1.41500	14640
1.41567	14633
1.41633	14625
1.41700	14617
1.41767	14610
1.41833	14602
1.41900	14595
1.41967	14587
1.42033	14579
1.42100	14572
1.42167	14564
1.42233	14557
1.42300	14549
1.42367	14542
1.42433	14535
1.42500	14527
1.42567	14520
1.42633	14513
1.42700	14506
1.42767	14499
1.42833	14492
1.42900	14485
1.42967	14478
1.43033	14471
1.43100	14464
1.43167	14457
1.43233	14450
1.43300	14444
1.43367	14437
1.43433	14431
1.43500	14424
1.43567	14418
1.43633	14411
1.43700	14405
1.43767	14399
1.43833	14393
1.43900	14387
1.43967	14382
1.44033	14376
1.44100	14370
1.44167	14365
1.44233	14359
1.44300	14354
1.44367	14349
1.44433	14344
1.44500	14339
1.44567	14334
1.44633	14330
1.44700	14325
1.44767	14320
1.44833	14316
1.44900	14312
1.44967	14307
1.45033	14303
1.45100	14299
1.45167	14295
1.45233	14291
1.45300	14287
1.45367	14284
1.45433	14280
1.45500	14276
1.45567	14272
1.45633	14268
1.45700	14264
1.45767	14260
1.45833	14256
1.45900	14252
1.45967	14248
1.46033	14244
1.46100	14240
1.46167	14235
1.46233	14231
1.46300	14226
1.46367	14222
1.46433	14217
1.46500	14212
1.46567	14207
1.46633	14202
1.46700	14197
1.46767	14192
1.46833	14186
1.46900	14181
1.46967	14175
1.47033	14170
1.47100	14164
1.47167	14158
1.47233	14152
1.47300	14146
1.47367	14140
1.47433	14134
1.47500	14128
1.47567	14122
1.47633	14116
1.47700	14110
1.47767	14103
1.47833	14097
1.47900	14091
1.47967	14084
1.48033	14078
1.48100	14071
1.48167	14065
1.48233	14059
1.48300	14052
1.48367	14046
1.48433	14039
1.48500	14033
1.48567	14027
1.48633	14020
1.48700	14014
1.48767	14008
1.48833	14001
1.48900	13995
1.48967	13989
1.49033	13983
1.49100	13976
1.49167	13970
1.49233	13964
1.49300	13957
1.49367	13951
1.49433	13945
1.49500	13939
1.49567	13933
1.49633	13927
1.49700	13921
1.49767	13915
1.49833	13909
1.49900	13903
1.49967	13897
1.50033	13891
1.50100	13885
1.50167	13879
1.50233	13874
1.50300	13868
1.50367	13862
1.50433	13856
1.50500	13851
1.50567	13845
1.50633	13839
1.50700	13833
1.50767	13827
1.50833	13822
1.50900	13816
1.50967	13810
1.51033	13804
1.51100	13798
1.51167	13792
1.51233	13786
1.51300	13780
1.51367	13774
1.51433	13769
1.51500	13763
1.51567	13757
1.51633	13751
1.51700	13745
1.51767	13739
1.51833	13733
1.51900	13727
1.51967	13721
1.52033	13715
1.52100	13709
1.52167	13703
1.52233	13697
1.52300	13691
1.52367	13685
1.52433	13679
1.52500	13673
1.52567	13667
1.52633	13661
1.52700	13655
1.52767	13649
1.52833	13643
1.52900	13636
1.52967	13630
1.53033	13624
1.53100	13618
1.53167	13612
1.53233	13605
1.53300	13599
1.53367	13593
1.53433	13587
1.53500	13580
1.53567	13574
1.53633	13568
1.53700	13561
1.53767	13555
1.53833	13549
1.53900	13543
1.53967	13536
1.54033	13530
1.54100	13524
1.54167	13518
1.54233	13511
1.54300	13505
1.54367	13499
1.54433	13493
1.54500	13486
1.54567	13480
1.54633	13474
1.54700	13468
1.54767	13462
1.54833	13455
1.54900	13449
1.54967	13443
1.55033	13437
1.55100	13430
1.55167	13424
1.55233	13418
1.55300	13412
1.55367	13406
1.55433	13400
1.55500	13394
1.55567	13388
1.55633	13381
1.55700	13375
1.55767	13369
1.55833	13363
1.55900	13357
1.55967	13351
1.56033	13345
1.56100	13339
1.56167	13334
1.56233	13328
1.56300	13322
1.56367	13316
1.56433	13311
1.56500	13305
1.56567	13300
1.56633	13294
1.56700	13289
1.56767	13283
1.56833	13278
1.56900	13272
1.56967	13267
1.57033	13262
1.57100	13256
1.57167	13251
1.57233	13245
1.57300	13240
1.57367	13235
1.57433	13229
1.57500	13224
1.57567	13219
1.57633	13213
1.57700	13208
1.57767	13202
1.57833	13197
1.57900	13192
1.57967	13186
1.58033	13181
1.58100	13176
1.58167	13170
1.58233	13165
1.58300	13160
1.58367	13155
1.58433	13150
1.58500	13145
1.58567	13140
1.58633	13135
1.58700	13130
1.58767	13125
1.58833	13120
1.58900	13115
1.58967	13110
1.59033	13105
1.59100	13100
1.59167	13096
1.59233	13091
1.59300	13086
1.59367	13081
1.59433	13077
1.59500	13072
1.59567	13068
1.59633	13063
1.59700	13059
1.59767	13054
1.59833	13050
1.59900	13045
1.59967	13041
1.60033	13036
1.60100	13032
1.60167	13028
1.60233	13023
1.60300	13019
1.60367	13015
1.60433	13011
1.60500	13006
1.60567	13002
1.60633	12998
1.60700	12994
1.60767	12989
1.60833	12985
1.60900	12981
1.60967	12977
1.61033	12973
1.61100	12968
1.61167	12964
1.61233	12960
1.61300	12956
1.61367	12952
1.61433	12947
1.61500	12943
1.61567	12939
1.61633	12935
1.61700	12931
1.61767	12927
1.61833	12923
1.61900	12919
1.61967	12915
1.62033	12911
1.62100	12907
1.62167	12903
1.62233	12899
1.62300	12895
1.62367	12892
1.62433	12888
1.62500	12884
1.62567	12881
1.62633	12877
1.62700	12874
1.62767	12870
1.62833	12867
1.62900	12863
1.62967	12860
1.63033	12857
1.63100	12854
1.63167	12850
1.63233	12847
1.63300	12844
1.63367	12840
1.63433	12837
1.63500	12834
1.63567	12830
1.63633	12827
1.63700	12824
1.63767	12821
1.63833	12817
1.63900	12814
1.63967	12811
1.64033	12808
1.64100	12805
1.64167	12801
1.64233	12798
1.64300	12795
1.64367	12792
1.64433	12789
1.64500	12786
1.64567	12783
1.64633	12780
1.64700	12777
1.64767	12774
1.64833	12771
1.64900	12768
1.64967	12765
1.65033	12763
1.65100	12760
1.65167	12757
1.65233	12754
1.65300	12751
1.65367	12748
1.65433	12745
1.65500	12742
1.65567	12739
1.65633	12736
1.65700	12733
1.65767	12730
1.65833	12727
1.65900	12724
1.65967	12721
1.66033	12718
1.66100	12715
1.66167	12712
1.66233	12709
1.66300	12706
1.66367	12703
1.66433	12700
1.66500	12697
1.66567	12694
1.66633	12691
1.66700	12688
1.66767	12685
1.66833	12682
1.66900	12679
1.66967	12675
1.67033	12672
1.67100	12669
1.67167	12666
1.67233	12663
1.67300	12660
1.67367	12657
1.67433	12653
1.67500	12650
1.67567	12647
1.67633	12643
1.67700	12640
1.67767	12636
1.67833	12633
1.67900	12629
1.67967	12625
1.68033	12622
1.68100	12618
1.68167	12614
1.68233	12610
1.68300	12606
1.68367	12602
1.68433	12598
1.68500	12594
1.68567	12590
1.68633	12586
1.68700	12582
1.68767	12578
1.68833	12574
1.68900	12570
1.68967	12565
1.69033	12561
1.69100	12557
1.69167	12552
1.69233	12548
1.69300	12544
1.69367	12539
1.69433	12535
1.69500	12531
1.69567	12526
1.69633	12522
1.69700	12517
1.69767	12513
1.69833	12508
1.69900	12504
1.69967	12499
1.70033	12495
1.70100	12490
1.70167	12485
1.70233	12481
1.70300	12476
1.70367	12471
1.70433	12466
1.70500	12462
1.70567	12457
1.70633	12452
1.70700	12447
1.70767	12443
1.70833	12438
1.70900	12433
1.70967	12429
1.71033	12424
1.71100	12420
1.71167	12415
1.71233	12410
1.71300	12406
1.71367	12402
1.71433	12397
1.71500	12393
1.71567	12390
1.71633	12386
1.71700	12383
1.71767	12380
1.71833	12379
1.71900	12378
1.71967	12377
1.72033	12378
1.72100	12381
1.72167	12385
1.72233	12392
1.72300	12401
1.72367	12413
1.72433	12430
1.72500	12451
1.72567	12479
1.72633	12513
1.72700	12556
1.72767	12609
1.72833	12675
1.72900	12754
1.72967	12851
1.73033	12967
1.73100	13107
1.73167	13273
1.73233	13471
1.73300	13705
1.73367	13981
1.73433	14304
1.73500	14682
1.73567	15121
1.73633	15631
1.73700	16219
1.73767	16896
1.73833	17671
1.73900	18554
1.73967	19558
1.74033	20693
1.74100	21974
1.74167	23414
1.74233	25027
1.74300	26829
1.74367	28835
1.74433	31062
1.74500	33527
1.74567	36248
1.74633	39245
1.74700	42538
1.74767	46149
1.74833	50099
1.74900	54409
1.74967	59100
1.75033	64190
1.75100	69700
1.75167	75652
1.75233	82067
1.75300	88970
1.75367	96384
1.75433	104333
1.75500	112840
1.75567	121930
1.75633	131624
1.75700	141941
1.75767	152896
1.75833	164502
1.75900	176767
1.75967	189698
1.76033	203305
1.76100	217597
1.76167	232576
1.76233	248245
1.76300	264603
1.76367	281647
1.76433	299371
1.76500	317766
1.76567	336818
1.76633	356511
1.76700	376831
1.76767	397750
1.76833	419233
1.76900	441242
1.76967	463730
1.77033	486645
1.77100	509922
1.77167	533494
1.77233	557293
1.77300	581251
1.77367	605290
1.77433	629323
1.77500	653251
1.77567	676969
1.77633	700368
1.77700	723340
1.77767	745775
1.77833	767565
1.77900	788598
1.77967	808770
1.78033	827980
1.78100	846134
1.78167	863159
1.78233	878984
1.78300	893554
1.78367	906821
1.78433	918752
1.78500	929325
1.78567	938530
1.78633	946365
1.78700	952842
1.78767	957982
1.78833	961815
1.78900	964378
1.78967	965715
1.79033	965873
1.79100	964905
1.79167	962865
1.79233	959807
1.79300	955791
1.79367	950874
1.79433	945114
1.79500	938568
1.79567	931292
1.79633	923339
1.79700	914763
1.79767	905615
1.79833	895944
1.79900	885796
1.79967	875218
1.80033	864250
1.80100	852936
1.80167	841311
1.80233	829414
1.80300	817278
1.80367	804936
1.80433	792419
1.80500	779755
1.80567	766971
1.80633	754092
1.80700	741143
1.80767	728146
1.80833	715120
1.80900	702086
1.80967	689062
1.81033	676063
1.81100	663106
1.81167	650206
1.81233	637374
1.81300	624624
1.81367	611967
1.81433	599412
1.81500	586971
1.81567	574651
1.81633	562459
1.81700	550405
1.81767	538492
1.81833	526729
1.81900	515119
1.81967	503667
1.82033	492377
1.82100	481254
1.82167	470299
1.82233	459516
1.82300	448907
1.82367	438474
1.82433	428218
1.82500	418140
1.82567	408241
1.82633	398522
1.82700	388982
1.82767	379623
1.82833	370442
1.82900	361441
1.82967	352618
1.83033	343972
1.83100	335502
1.83167	327207
1.83233	319086
1.83300	311137
1.83367	303358
1.83433	295748
1.83500	288305
1.83567	281026
1.83633	273910
1.83700	266956
1.83767	260159
1.83833	253520
1.83900	247034
1.83967	240700
1.84033	234516
1.84100	228479
1.84167	222586
1.84233	216836
1.84300	211225
1.84367	205752
1.84433	200413
1.84500	195207
1.84567	190131
1.84633	185183
1.84700	180359
1.84767	175659
1.84833	171078
1.84900	166615
1.84967	162267
1.85033	158033
1.85100	153909
1.85167	149893
1.85233	145982
1.85300	142176
1.85367	138470
1.85433	134864
1.85500	131354
1.85567	127939
1.85633	124616
1.85700	121384
1.85767	118239
1.85833	115181
1.85900	112206
1.85967	109314
1.86033	106501
1.86100	103766
1.86167	101107
1.86233	98523
1.86300	96010
1.86367	93569
1.86433	91195
1.86500	88889
1.86567	86647
1.86633	84469
1.86700	82353
1.86767	80297
1.86833	78299
1.86900	76358
1.86967	74473
1.87033	72641
1.87100	70862
1.87167	69133
1.87233	67454
1.87300	65824
1.87367	64240
1.87433	62702
1.87500	61209
1.87567	59758
1.87633	58350
1.87700	56982
1.87767	55655
1.87833	54365
1.87900	53114
1.87967	51898
1.88033	50719
1.88100	49574
1.88167	48462
1.88233	47383
1.88300	46336
1.88367	45320
1.88433	44333
1.88500	43376
1.88567	42447
1.88633	41546
1.88700	40671
1.88767	39822
1.88833	38998
1.88900	38200
1.88967	37424
1.89033	36673
1.89100	35943
1.89167	35236
1.89233	34549
1.89300	33884
1.89367	33238
1.89433	32612
1.89500	32005
1.89567	31416
1.89633	30845
1.89700	30291
1.89767	29754
1.89833	29233
1.89900	28728
1.89967	28239
1.90033	27765
1.90100	27305
1.90167	26859
1.90233	26427
1.90300	26008
1.90367	25602
1.90433	25208
1.90500	24826
1.90567	24457
1.90633	24098
1.90700	23750
1.90767	23413
1.90833	23087
1.90900	22770
1.90967	22463
1.91033	22166
1.91100	21878
1.91167	21598
1.91233	21327
1.91300	21064
1.91367	20810
1.91433	20563
1.91500	20323
1.91567	20091
1.91633	19866
1.91700	19648
1.91767	19437
1.91833	19232
1.91900	19033
1.91967	18840
1.92033	18653
1.92100	18472
1.92167	18296
1.92233	18125
1.92300	17960
1.92367	17799
1.92433	17643
1.92500	17492
1.92567	17345
1.92633	17203
1.92700	17064
1.92767	16930
1.92833	16800
1.92900	16673
1.92967	16550
1.93033	16430
1.93100	16314
1.93167	16201
1.93233	16092
1.93300	15985
1.93367	15882
1.93433	15781
1.93500	15684
1.93567	15589
1.93633	15497
1.93700	15407
1.93767	15320
1.93833	15235
1.93900	15153
1.93967	15073
1.94033	14995
1.94100	14919
1.94167	14845
1.94233	14773
1.94300	14703
1.94367	14634
1.94433	14568
1.94500	14503
1.94567	14440
1.94633	14379
1.94700	14319
1.94767	14261
1.94833	14204
1.94900	14149
1.94967	14095
1.95033	14042
1.95100	13991
1.95167	13941
1.95233	13892
1.95300	13844
1.95367	13798
1.95433	13753
1.95500	13709
1.95567	13666
1.95633	13624
1.95700	13583
1.95767	13543
1.95833	13504
1.95900	13466
1.95967	13428
1.96033	13392
1.96100	13356
1.96167	13321
1.96233	13287
1.96300	13253
1.96367	13221
1.96433	13189
1.96500	13157
1.96567	13127
1.96633	13097
1.96700	13067
1.96767	13038
1.96833	13010
1.96900	12982
1.96967	12955
1.97033	12928
1.97100	12902
1.97167	12877
1.97233	12851
1.97300	12827
1.97367	12803
1.97433	12779
1.97500	12756
1.97567	12733
1.97633	12711
1.97700	12689
1.97767	12668
1.97833	12647
1.97900	12626
1.97967	12606
1.98033	12586
1.98100	12566
1.98167	12547
1.98233	12529
1.98300	12510
1.98367	12492
1.98433	12474
1.98500	12457
1.98567	12439
1.98633	12422
1.98700	12406
1.98767	12389
1.98833	12373
1.98900	12357
1.98967	12341
1.99033	12326
1.99100	12311
1.99167	12296
1.99233	12282
1.99300	12267
1.99367	12253
1.99433	12239
1.99500	12225
1.99567	12211
1.99633	12198
1.99700	12185
1.99767	12172
1.99833	12159
1.99900	12147
1.99967	12134
2.00033	12122
2.00100	12110
2.00167	12098
2.00233	12086
2.00300	12075
2.00367	12063
2.00433	12052
2.00500	12040
2.00567	12029
2.00633	12018
2.00700	12007
2.00767	11996
2.00833	11986
2.00900	11975
2.00967	11965
2.01033	11954
2.01100	11944
2.01167	11933
2.01233	11923
2.01300	11913
2.01367	11903
2.01433	11893
2.01500	11883
2.01567	11874
2.01633	11864
2.01700	11854
2.01767	11844
2.01833	11834
2.01900	11824
2.01967	11814
2.02033	11804
2.02100	11794
2.02167	11784
2.02233	11775
2.02300	11765
2.02367	11755
2.02433	11745
2.02500	11736
2.02567	11726
2.02633	11717
2.02700	11707
2.02767	11697
2.02833	11688
2.02900	11679
2.02967	11669
2.03033	11660
2.03100	11651
2.03167	11641
2.03233	11632
2.03300	11623
2.03367	11614
2.03433	11605
2.03500	11596
2.03567	11587
2.03633	11579
2.03700	11570
2.03767	11562
2.03833	11553
2.03900	11545
2.03967	11537
2.04033	11529
2.04100	11521
2.04167	11513
2.04233	11505
2.04300	11497
2.04367	11489
2.04433	11481
2.04500	11474
2.04567	11466
2.04633	11459
2.04700	11451
2.04767	11444
2.04833	11436
2.04900	11429
2.04967	11422
2.05033	11414
2.05100	11407
2.05167	11400
2.05233	11392
2.05300	11385
2.05367	11378
2.05433	11371
2.05500	11364
2.05567	11356
2.05633	11349
2.05700	11342
2.05767	11335
2.05833	11328
2.05900	11321
2.05967	11314
2.06033	11307
2.06100	11300
2.06167	11293
2.06233	11286
2.06300	11279
2.06367	11272
2.06433	11266
2.06500	11259
2.06567	11253
2.06633	11246
2.06700	11240
2.06767	11233
2.06833	11227
2.06900	11221
2.06967	11215
2.07033	11209
2.07100	11202
2.07167	11196
2.07233	11190
2.07300	11184
2.07367	11178
2.07433	11172
2.07500	11166
2.07567	11160
2.07633	11154
2.07700	11148
2.07767	11142
2.07833	11136
2.07900	11130
2.07967	11124
2.08033	11118
2.08100	11112
2.08167	11106
2.08233	11100
2.08300	11094
2.08367	11087
2.08433	11081
2.08500	11075
2.08567	11069
2.08633	11063
2.08700	11057
2.08767	11051
2.08833	11045
2.08900	11039
2.08967	11033
2.09033	11027
2.09100	11021
2.09167	11015
2.09233	11010
2.09300	11004
2.09367	10998
2.09433	10992
2.09500	10987
2.09567	10981
2.09633	10975
2.09700	10970
2.09767	10964
2.09833	10958
2.09900	10953
2.09967	10948
2.10033	10942
2.10100	10937
2.10167	10931
2.10233	10926
2.10300	10921
2.10367	10915
2.10433	10910
2.10500	10905
2.10567	10900
2.10633	10894
2.10700	10889
2.10767	10884
2.10833	10878
2.10900	10873
2.10967	10868
2.11033	10862
2.11100	10857
2.11167	10851
2.11233	10846
2.11300	10841
2.11367	10836
2.11433	10830
2.11500	10825
2.11567	10820
2.11633	10815
2.11700	10809
2.11767	10804
2.11833	10799
2.11900	10794
2.11967	10789
2.12033	10783
2.12100	10778
2.12167	10773
2.12233	10768
2.12300	10763
2.12367	10758
2.12433	10752
2.12500	10747
2.12567	10742
2.12633	10737
2.12700	10732
2.12767	10727
2.12833	10722
2.12900	10717
2.12967	10713
2.13033	10708
2.13100	10703
2.13167	10698
2.13233	10693
2.13300	10688
2.13367	10683
2.13433	10679
2.13500	10674
2.13567	10669
2.13633	10664
2.13700	10660
2.13767	10655
2.13833	10650
2.13900	10646
2.13967	10641
2.14033	10636
2.14100	10632
2.14167	10627
2.14233	10622
2.14300	10618
2.14367	10613
2.14433	10609
2.14500	10604
2.14567	10600
2.14633	10595
2.14700	10591
2.14767	10586
2.14833	10582
2.14900	10577
2.14967	10573
2.15033	10568
2.15100	10564
2.15167	10559
2.15233	10555
2.15300	10551
2.15367	10546
2.15433	10542
2.15500	10537
2.15567	10533
2.15633	10529
2.15700	10525
2.15767	10521
2.15833	10517
2.15900	10513
2.15967	10509
2.16033	10505
2.16100	10501
2.16167	10497
2.16233	10493
2.16300	10490
2.16367	10486
2.16433	10482
2.16500	10478
2.16567	10474
2.16633	10470
2.16700	10466
2.16767	10462
2.16833	10459
2.16900	10455
2.16967	10451
2.17033	10447
2.17100	10443
2.17167	10440
2.17233	10436
2.17300	10432
2.17367	10428
2.17433	10425
2.17500	10421
2.17567	10417
2.17633	10413
2.17700	10410
2.17767	10406
2.17833	10402
2.17900	10398
2.17967	10395
2.18033	10391
2.18100	10387
2.18167	10384
2.18233	10380
2.18300	10376
2.18367	10373
2.18433	10369
2.18500	10366
2.18567	10362
2.18633	10358
2.18700	10355
2.18767	10351
2.18833	10348
2.18900	10344
2.18967	10341
2.19033	10337
2.19100	10333
2.19167	10330
2.19233	10326
2.19300	10323
2.19367	10319
2.19433	10316
2.19500	10312
2.19567	10309
2.19633	10305
2.19700	10302
2.19767	10299
2.19833	10295
2.19900	10292
2.19967	10289
2.20033	10286
2.20100	10283
2.20167	10280
2.20233	10277
2.20300	10274
2.20367	10271
2.20433	10269
2.20500	10266
2.20567	10263
2.20633	10261
2.20700	10259
2.20767	10256
2.20833	10254
2.20900	10252
2.20967	10250
2.21033	10248
2.21100	10247
2.21167	10245
2.21233	10244
2.21300	10242
2.21367	10241
2.21433	10240
2.21500	10239
2.21567	10238
2.21633	10237
2.21700	10237
2.21767	10236
2.21833	10236
2.21900	10235
2.21967	10235
2.22033	10235
2.22100	10234
2.22167	10234
2.22233	10234
2.22300	10234
2.22367	10234
2.22433	10234
2.22500	10234
2.22567	10234
2.22633	10234
2.22700	10234
2.22767	10234
2.22833	10234
2.22900	10233
2.22967	10233
2.23033	10233
2.23100	10232
2.23167	10232
2.23233	10231
2.23300	10230
2.23367	10230
2.23433	10229
2.23500	10228
2.23567	10227
2.23633	10225
2.23700	10224
2.23767	10223
2.23833	10221
2.23900	10219
2.23967	10218
2.24033	10216
2.24100	10214
2.24167	10212
2.24233	10210
2.24300	10207
2.24367	10205
2.24433	10202
2.24500	10200
2.24567	10197
2.24633	10195
2.24700	10192
2.24767	10189
2.24833	10187
2.24900	10184
2.24967	10181
2.25033	10178
2.25100	10175
2.25167	10172
2.25233	10169
2.25300	10166
2.25367	10163
2.25433	10161
2.25500	10158
2.25567	10155
2.25633	10151
2.25700	10148
2.25767	10145
2.25833	10142
2.25900	10139
2.25967	10136
2.26033	10133
2.26100	10130
2.26167	10127
2.26233	10124
2.26300	10121
2.26367	10118
2.26433	10115
2.26500	10111
2.26567	10108
2.26633	10105
2.26700	10101
2.26767	10098
2.26833	10094
2.26900	10091
2.26967	10087
2.27033	10084
2.27100	10080
2.27167	10076
2.27233	10072
2.27300	10068
2.27367	10064
2.27433	10060
2.27500	10056
2.27567	10052
2.27633	10048
2.27700	10044
2.27767	10039
2.27833	10035
2.27900	10031
2.27967	10027
2.28033	10023
2.28100	10018
2.28167	10014
2.28233	10010
2.28300	10006
2.28367	10001
2.28433	9997
2.28500	9993
2.28567	9989
2.28633	9985
2.28700	9980
2.28767	9976
2.28833	9972
2.28900	9968
2.28967	9964
2.29033	9960
2.29100	9956
2.29167	9952
2.29233	9948
2.29300	9944
2.29367	9940
2.29433	9936
2.29500	9933
2.29567	9929
2.29633	9925
2.29700	9921
2.29767	9917
2.29833	9914
2.29900	9910
2.29967	9906
2.30033	9903
2.30100	9899
2.30167	9896
2.30233	9892
2.30300	9889
2.30367	9885
2.30433	9882
2.30500	9878
2.30567	9875
2.30633	9872
2.30700	9869
2.30767	9865
2.30833	9862
2.30900	9859
2.30967	9856
2.31033	9853
2.31100	9850
2.31167	9846
2.31233	9843
2.31300	9840
2.31367	9837
2.31433	9835
2.31500	9832
2.31567	9829
2.31633	9826
2.31700	9823
2.31767	9820
2.31833	9818
2.31900	9815
2.31967	9812
2.32033	9810
2.32100	9807
2.32167	9805
2.32233	9802
2.32300	9800
2.32367	9797
2.32433	9795
2.32500	9793
2.32567	9790
2.32633	9788
2.32700	9786
2.32767	9784
2.32833	9781
2.32900	9779
2.32967	9777
2.33033	9775
2.33100	9773
2.33167	9771
2.33233	9769
2.33300	9767
2.33367	9765
2.33433	9763
2.33500	9762
2.33567	9760
2.33633	9758
2.33700	9756
2.33767	9754
2.33833	9752
2.33900	9751
2.33967	9749
2.34033	9747
2.34100	9746
2.34167	9744
2.34233	9743
2.34300	9742
2.34367	9740
2.34433	9739
2.34500	9738
2.34567	9737
2.34633	9735
2.34700	9734
2.34767	9733
2.34833	9732
2.34900	9731
2.34967	9730
2.35033	9729
2.35100	9729
2.35167	9728
2.35233	9727
2.35300	9726
2.35367	9725
2.35433	9724
2.35500	9723
2.35567	9723
2.35633	9722
2.35700	9721
2.35767	9720
2.35833	9719
2.35900	9718
2.35967	9718
2.36033	9717
2.36100	9716
2.36167	9715
2.36233	9714
2.36300	9713
2.36367	9712
2.36433	9711
2.36500	9710
2.36567	9709
2.36633	9708
2.36700	9706
2.36767	9705
2.36833	9704
2.36900	9702
2.36967	9701
2.37033	9700
2.37100	9698
2.37167	9697
2.37233	9695
2.37300	9694
2.37367	9692
2.37433	9691
2.37500	9689
2.37567	9687
2.37633	9686
2.37700	9684
2.37767	9682
2.37833	9680
2.37900	9678
2.37967	9677
2.38033	9675
2.38100	9673
2.38167	9671
2.38233	9669
2.38300	9667
2.38367	9665
2.38433	9663
2.38500	9661
2.38567	9659
2.38633	9656
2.38700	9654
2.38767	9652
2.38833	9650
2.38900	9648
2.38967	9646
2.39033	9644
2.39100	9641
2.39167	9639
2.39233	9637
2.39300	9634
2.39367	9632
2.39433	9630
2.39500	9628
2.39567	9625
2.39633	9623
2.39700	9621
2.39767	9619
2.39833	9616
2.39900	9614
2.39967	9612
2.40033	9610
2.40100	9608
2.40167	9605
2.40233	9603
2.40300	9601
2.40367	9599
2.40433	9597
2.40500	9594
2.40567	9592
2.40633	9590
2.40700	9588
2.40767	9586
2.40833	9584
2.40900	9582
2.40967	9580
2.41033	9578
2.41100	9576
2.41167	9574
2.41233	9572
2.41300	9570
2.41367	9568
2.41433	9566
2.41500	9564
2.41567	9562
2.41633	9560
2.41700	9559
2.41767	9557
2.41833	9555
2.41900	9553
2.41967	9551
2.42033	9549
2.42100	9547
2.42167	9545
2.42233	9543
2.42300	9541
2.42367	9539
2.42433	9537
2.42500	9535
2.42567	9532
2.42633	9530
2.42700	9528
2.42767	9526
2.42833	9524
2.42900	9521
2.42967	9519
2.43033	9517
2.43100	9514
2.43167	9512
2.43233	9510
2.43300	9507
2.43367	9505
2.43433	9502
2.43500	9499
2.43567	9497
2.43633	9494
2.43700	9492
2.43767	9489
2.43833	9486
2.43900	9483
2.43967	9481
2.44033	9478
2.44100	9475
2.44167	9472
2.44233	9469
2.44300	9466
2.44367	9463
2.44433	9460
2.44500	9457
2.44567	9454
2.44633	9451
2.44700	9448
2.44767	9445
2.44833	9442
2.44900	9438
2.44967	9435
2.45033	9432
2.45100	9429
2.45167	9426
2.45233	9422
2.45300	9419
2.45367	9416
2.45433	9412
2.45500	9409
2.45567	9406
2.45633	9402
2.45700	9399
2.45767	9396
2.45833	9392
2.45900	9389
2.45967	9385
2.46033	9382
2.46100	9378
2.46167	9375
2.46233	9371
2.46300	9368
2.46367	9364
2.46433	9361
2.46500	9357
2.46567	9354
2.46633	9351
2.46700	9347
2.46767	9344
2.46833	9340
2.46900	9337
2.46967	9333
2.47033	9330
2.47100	9327
2.47167	9323
2.47233	9320
2.47300	9316
2.47367	9313
2.47433	9309
2.47500	9306
2.47567	9302
2.47633	9299
2.47700	9296
2.47767	9292
2.47833	9289
2.47900	9286
2.47967	9282
2.48033	9279
2.48100	9276
2.48167	9273
2.48233	9270
2.48300	9266
2.48367	9263
2.48433	9260
2.48500	9257
2.48567	9254
2.48633	9251
2.48700	9247
2.48767	9244
2.48833	9241
2.48900	9238
2.48967	9235
2.49033	9231
2.49100	9228
2.49167	9225
2.49233	9222
2.49300	9219
2.49367	9215
2.49433	9212
2.49500	9209
2.49567	9206
2.49633	9203
2.49700	9199
2.49767	9196
2.49833	9193
2.49900	9190
2.49967	9186
2.50033	9183
2.50100	9180
2.50167	9177
2.50233	9173
2.50300	9170
2.50367	9167
2.50433	9163
2.50500	9160
2.50567	9156
2.50633	9153
2.50700	9150
2.50767	9146
2.50833	9143
2.50900	9139
2.50967	9136
2.51033	9132
2.51100	9129
2.51167	9125
2.51233	9121
2.51300	9118
2.51367	9114
2.51433	9111
2.51500	9107
2.51567	9104
2.51633	9100
2.51700	9097
2.51767	9093
2.51833	9090
2.51900	9087
2.51967	9083
2.52033	9080
2.52100	9077
2.52167	9073
2.52233	9070
2.52300	9067
2.52367	9063
2.52433	9060
2.52500	9057
2.52567	9054
2.52633	9051
2.52700	9047
2.52767	9044
2.52833	9041
2.52900	9038
2.52967	9034
2.53033	9031
2.53100	9028
2.53167	9024
2.53233	9021
2.53300	9018
2.53367	9014
2.53433	9011
2.53500	9008
2.53567	9004
2.53633	9001
2.53700	8998
2.53767	8995
2.53833	8991
2.53900	8988
2.53967	8985
2.54033	8982
2.54100	8979
2.54167	8975
2.54233	8972
2.54300	8969
2.54367	8966
2.54433	8963
2.54500	8960
2.54567	8956
2.54633	8953
2.54700	8950
2.54767	8947
2.54833	8944
2.54900	8941
2.54967	8938
2.55033	8935
2.55100	8932
2.55167	8928
2.55233	8925
2.55300	8922
2.55367	8919
2.55433	8916
2.55500	8913
2.55567	8910
2.55633	8907
2.55700	8904
2.55767	8901
2.55833	8899
2.55900	8896
2.55967	8893
2.56033	8890
2.56100	8887
2.56167	8884
2.56233	8881
2.56300	8878
2.56367	8875
2.56433	8872
2.56500	8870
2.56567	8867
2.56633	8864
2.56700	8861
2.56767	8858
2.56833	8855
2.56900	8852
2.56967	8849
2.57033	8847
2.57100	8844
2.57167	8841
2.57233	8838
2.57300	8835
2.57367	8832
2.57433	8829
2.57500	8826
2.57567	8823
2.57633	8820
2.57700	8818
2.57767	8815
2.57833	8812
2.57900	8809
2.57967	8807
2.58033	8804
2.58100	8801
2.58167	8799
2.58233	8796
2.58300	8793
2.58367	8791
2.58433	8788
2.58500	8786
2.58567	8784
2.58633	8781
2.58700	8779
2.58767	8776
2.58833	8774
2.58900	8772
2.58967	8769
2.59033	8767
2.59100	8765
2.59167	8762
2.59233	8760
2.59300	8758
2.59367	8756
2.59433	8753
2.59500	8751
2.59567	8749
2.59633	8747
2.59700	8744
2.59767	8742
2.59833	8740
2.59900	8738
2.59967	8736
2.60033	8733
2.60100	8731
2.60167	8729
2.60233	8727
2.60300	8725
2.60367	8723
2.60433	8721
2.60500	8718
2.60567	8716
2.60633	8714
2.60700	8712
2.60767	8710
2.60833	8707
2.60900	8705
2.60967	8703
2.61033	8701
2.61100	8699
2.61167	8696
2.61233	8694
2.61300	8692
2.61367	8690
2.61433	8687
2.61500	8685
2.61567	8683
2.61633	8680
2.61700	8678
2.61767	8676
2.61833	8673
2.61900	8671
2.61967	8668
2.62033	8666
2.62100	8664
2.62167	8661
2.62233	8659
2.62300	8656
2.62367	8654
2.62433	8652
2.62500	8649
2.62567	8647
2.62633	8644
2.62700	8642
2.62767	8639
2.62833	8637
2.62900	8634
2.62967	8632
2.63033	8629
2.63100	8626
2.63167	8624
2.63233	8621
2.63300	8619
2.63367	8616
2.63433	8613
2.63500	8611
2.63567	8608
2.63633	8606
2.63700	8603
2.63767	8600
2.63833	8598
2.63900	8595
2.63967	8592
2.64033	8589
2.64100	8587
2.64167	8584
2.64233	8581
2.64300	8578
2.64367	8576
2.64433	8573
2.64500	8570
2.64567	8567
2.64633	8564
2.64700	8561
2.64767	8559
2.64833	8556
2.64900	8553
2.64967	8550
2.65033	8547
2.65100	8544
2.65167	8541
2.65233	8539
2.65300	8536
2.65367	8533
2.65433	8530
2.65500	8527
2.65567	8524
2.65633	8521
2.65700	8518
2.65767	8515
2.65833	8512
2.65900	8509
2.65967	8506
2.66033	8503
2.66100	8500
2.66167	8497
2.66233	8494
2.66300	8491
2.66367	8488
2.66433	8485
2.66500	8482
2.66567	8479
2.66633	8476
2.66700	8473
2.66767	8471
2.66833	8468
2.66900	8465
2.66967	8462
2.67033	8460
2.67100	8457
2.67167	8454
2.67233	8452
2.67300	8449
2.67367	8447
2.67433	8444
2.67500	8441
2.67567	8439
2.67633	8436
2.67700	8434
2.67767	8431
2.67833	8429
2.67900	8426
2.67967	8423
2.68033	8421
2.68100	8418
2.68167	8416
2.68233	8414
2.68300	8411
2.68367	8409
2.68433	8406
2.68500	8404
2.68567	8402
2.68633	8399
2.68700	8397
2.68767	8395
2.68833	8393
2.68900	8390
2.68967	8388
2.69033	8386
2.69100	8384
2.69167	8382
2.69233	8379
2.69300	8377
2.69367	8375
2.69433	8373
2.69500	8371
2.69567	8369
2.69633	8367
2.69700	8365
2.69767	8363
2.69833	8360
2.69900	8358
2.69967	8356
2.70033	8354
2.70100	8352
2.70167	8350
2.70233	8348
2.70300	8346
2.70367	8343
2.70433	8341
2.70500	8339
2.70567	8337
2.70633	8335
2.70700	8333
2.70767	8331
2.70833	8329
2.70900	8327
2.70967	8325
2.71033	8323
2.71100	8321
2.71167	8319
2.71233	8317
2.71300	8315
2.71367	8313
2.71433	8311
2.71500	8310
2.71567	8308
2.71633	8306
2.71700	8304
2.71767	8303
2.71833	8301
2.71900	8299
2.71967	8298
2.72033	8296
2.72100	8294
2.72167	8293
2.72233	8291
2.72300	8289
2.72367	8288
2.72433	8286
2.72500	8284
2.72567	8283
2.72633	8281
2.72700	8279
2.72767	8278
2.72833	8276
2.72900	8274
2.72967	8273
2.73033	8271
2.73100	8269
2.73167	8267
2.73233	8266
2.73300	8264
2.73367	8262
2.73433	8261
2.73500	8259
2.73567	8257
2.73633	8255
2.73700	8254
2.73767	8252
2.73833	8250
2.73900	8248
2.73967	8247
2.74033	8245
2.74100	8243
2.74167	8242
2.74233	8240
2.74300	8238
2.74367	8237
2.74433	8235
2.74500	8233
2.74567	8232
2.74633	8230
2.74700	8229
2.74767	8227
2.74833	8226
2.74900	8224
2.74967	8222
2.75033	8221
2.75100	8219
2.75167	8218
2.75233	8216
2.75300	8214
2.75367	8213
2.75433	8211
2.75500	8210
2.75567	8208
2.75633	8207
2.75700	8205
2.75767	8204
2.75833	8203
2.75900	8201
2.75967	8200
2.76033	8199
2.76100	8198
2.76167	8197
2.76233	8195
2.76300	8194
2.76367	8193
2.76433	8192
2.76500	8191
2.76567	8190
2.76633	8189
2.76700	8188
2.76767	8187
2.76833	8187
2.76900	8186
2.76967	8185
2.77033	8184
2.77100	8183
2.77167	8183
2.77233	8182
2.77300	8181
2.77367	8181
2.77433	8180
2.77500	8179
2.77567	8179
2.77633	8178
2.77700	8178
2.77767	8177
2.77833	8177
2.77900	8176
2.77967	8176
2.78033	8176
2.78100	8175
2.78167	8175
2.78233	8175
2.78300	8175
2.78367	8174
2.78433	8174
2.78500	8174
2.78567	8174
2.78633	8174
2.78700	8174
2.78767	8174
2.78833	8174
2.78900	8175
2.78967	8175
2.79033	8175
2.79100	8175
2.79167	8176
2.79233	8176
2.79300	8177
2.79367	8177
2.79433	8178
2.79500	8178
2.79567	8179
2.79633	8180
2.79700	8180
2.79767	8181
2.79833	8182
2.79900	8182
2.79967	8183
2.80033	8184
2.80100	8185
2.80167	8185
2.80233	8186
2.80300	8187
2.80367	8188
2.80433	8189
2.80500	8190
2.80567	8190
2.80633	8191
2.80700	8192
2.80767	8193
2.80833	8194
2.80900	8195
2.80967	8195
2.81033	8196
2.81100	8197
2.81167	8198
2.81233	8199
2.81300	8199
2.81367	8200
2.81433	8201
2.81500	8202
2.81567	8202
2.81633	8203
2.81700	8203
2.81767	8204
2.81833	8204
2.81900	8204
2.81967	8205
2.82033	8205
2.82100	8205
2.82167	8205
2.82233	8205
2.82300	8205
2.82367	8205
2.82433	8205
2.82500	8204
2.82567	8204
2.82633	8203
2.82700	8202
2.82767	8202
2.82833	8201
2.82900	8200
2.82967	8199
2.83033	8198
2.83100	8197
2.83167	8196
2.83233	8195
2.83300	8194
2.83367	8192
2.83433	8191
2.83500	8189
2.83567	8187
2.83633	8186
2.83700	8184
2.83767	8182
2.83833	8180
2.83900	8178
2.83967	8176
2.84033	8174
2.84100	8171
2.84167	8169
2.84233	8167
2.84300	8164
2.84367	8162
2.84433	8159
2.84500	8156
2.84567	8154
2.84633	8151
2.84700	8148
2.84767	8145
2.84833	8143
2.84900	8140
2.84967	8137
2.85033	8134
2.85100	8131
2.85167	8128
2.85233	8125
2.85300	8122
2.85367	8119
2.85433	8116
2.85500	8113
2.85567	8110
2.85633	8107
2.85700	8104
2.85767	8101
2.85833	8098
2.85900	8095
2.85967	8092
2.86033	8089
2.86100	8086
2.86167	8083
2.86233	8081
2.86300	8078
2.86367	8075
2.86433	8073
2.86500	8070
2.86567	8068
2.86633	8066
2.86700	8063
2.86767	8061
2.86833	8059
2.86900	8057
2.86967	8055
2.87033	8054
2.87100	8052
2.87167	8051
2.87233	8049
2.87300	8048
2.87367	8047
2.87433	8046
2.87500	8045
2.87567	8045
2.87633	8044
2.87700	8044
2.87767	8044
2.87833	8044
2.87900	8044
2.87967	8045
2.88033	8045
2.88100	8046
2.88167	8048
2.88233	8049
2.88300	8051
2.88367	8052
2.88433	8054
2.88500	8057
2.88567	8059
2.88633	8062
2.88700	8065
2.88767	8069
2.88833	8072
2.88900	8076
2.88967	8081
2.89033	8085
2.89100	8090
2.89167	8095
2.89233	8100
2.89300	8105
2.89367	8111
2.89433	8117
2.89500	8123
2.89567	8129
2.89633	8136
2.89700	8142
2.89767	8149
2.89833	8156
2.89900	8164
2.89967	8171
2.90033	8179
2.90100	8186
2.90167	8194
2.90233	8202
2.90300	8209
2.90367	8217
2.90433	8225
2.90500	8233
2.90567	8240
2.90633	8248
2.90700	8256
2.90767	8263
2.90833	8271
2.90900	8278
2.90967	8285
2.91033	8292
2.91100	8299
2.91167	8305
2.91233	8312
2.91300	8318
2.91367	8323
2.91433	8329
2.91500	8334
2.91567	8339
2.91633	8344
2.91700	8348
2.91767	8351
2.91833	8355
2.91900	8358
2.91967	8361
2.92033	8363
2.92100	8364
2.92167	8366
2.92233	8367
2.92300	8367
2.92367	8367
2.92433	8367
2.92500	8366
2.92567	8365
2.92633	8363
2.92700	8361
2.92767	8358
2.92833	8356
2.92900	8352
2.92967	8349
2.93033	8345
2.93100	8340
2.93167	8335
2.93233	8330
2.93300	8325
2.93367	8319
2.93433	8313
2.93500	8307
2.93567	8300
2.93633	8293
2.93700	8286
2.93767	8278
2.93833	8270
2.93900	8262
2.93967	8254
2.94033	8246
2.94100	8237
2.94167	8228
2.94233	8220
2.94300	8211
2.94367	8201
2.94433	8192
2.94500	8183
2.94567	8173
2.94633	8164
2.94700	8154
2.94767	8144
2.94833	8135
2.94900	8125
2.94967	8115
2.95033	8105
2.95100	8096
2.95167	8086
2.95233	8076
2.95300	8066
2.95367	8056
2.95433	8046
2.95500	8036
2.95567	8027
2.95633	8017
2.95700	8007
2.95767	7998
2.95833	7988
2.95900	7978
2.95967	7969
2.96033	7960
2.96100	7950
2.96167	7941
2.96233	7932
2.96300	7923
2.96367	7914
2.96433	7905
2.96500	7896
2.96567	7888
2.96633	7879
2.96700	7870
2.96767	7862
2.96833	7854
2.96900	7845
2.96967	7837
2.97033	7829
2.97100	7821
2.97167	7814
2.97233	7806
2.97300	7798
2.97367	7791
2.97433	7784
2.97500	7776
2.97567	7769
2.97633	7762
2.97700	7755
2.97767	7748
2.97833	7742
2.97900	7735
2.97967	7728
2.98033	7722
2.98100	7716
2.98167	7709
2.98233	7703
2.98300	7697
2.98367	7691
2.98433	7685
2.98500	7680
2.98567	7674
2.98633	7668
2.98700	7663
2.98767	7657
2.98833	7652
2.98900	7647
2.98967	7641
2.99033	7636
2.99100	7631
2.99167	7626
2.99233	7621
2.99300	7616
2.99367	7611
2.99433	7606
2.99500	7602
2.99567	7597
2.99633	7592
2.99700	7588
2.99767	7583
2.99833	7578
2.99900	7574
2.99967	7569
3.00033	7565
3.00100	7561
3.00167	7556
3.00233	7552
3.00300	7548
3.00367	7544
3.00433	7540
3.00500	7536
3.00567	7532
3.00633	7528
3.00700	7525
3.00767	7521
3.00833	7517
3.00900	7514
3.00967	7510
3.01033	7507
3.01100	7503
3.01167	7500
3.01233	7496
3.01300	7493
3.01367	7490
3.01433	7486
3.01500	7483
3.01567	7480
3.01633	7477
3.01700	7474
3.01767	7471
3.01833	7467
3.01900	7464
3.01967	7461
3.02033	7459
3.02100	7456
3.02167	7453
3.02233	7450
3.02300	7447
3.02367	7445
3.02433	7442
3.02500	7439
3.02567	7437
3.02633	7434
3.02700	7431
3.02767	7429
3.02833	7427
3.02900	7424
3.02967	7422
3.03033	7420
3.03100	7417
3.03167	7415
3.03233	7413
3.03300	7411
3.03367	7409
3.03433	7407
3.03500	7405
3.03567	7403
3.03633	7401
3.03700	7399
3.03767	7398
3.03833	7396
3.03900	7394
3.03967	7392
3.04033	7391
3.04100	7389
3.04167	7388
3.04233	7386
3.04300	7385
3.04367	7384
3.04433	7382
3.04500	7381
3.04567	7380
3.04633	7379
3.04700	7378
3.04767	7377
3.04833	7377
3.04900	7376
3.04967	7376
3.05033	7375
3.05100	7375
3.05167	7375
3.05233	7375
3.05300	7375
3.05367	7376
3.05433	7376
3.05500	7377
3.05567	7378
3.05633	7379
3.05700	7380
3.05767	7381
3.05833	7383
3.05900	7384
3.05967	7386
3.06033	7388
3.06100	7390
3.06167	7393
3.06233	7395
3.06300	7398
3.06367	7401
3.06433	7404
3.06500	7407
3.06567	7411
3.06633	7414
3.06700	7418
3.06767	7422
3.06833	7426
3.06900	7431
3.06967	7435
3.07033	7440
3.07100	7445
3.07167	7450
3.07233	7455
3.07300	7460
3.07367	7466
3.07433	7471
3.07500	7477
3.07567	7483
3.07633	7489
3.07700	7495
3.07767	7501
3.07833	7507
3.07900	7514
3.07967	7520
3.08033	7526
3.08100	7533
3.08167	7539
3.08233	7546
3.08300	7553
3.08367	7559
3.08433	7566
3.08500	7572
3.08567	7578
3.08633	7585
3.08700	7591
3.08767	7597
3.08833	7603
3.08900	7609
3.08967	7615
3.09033	7620
3.09100	7626
3.09167	7631
3.09233	7636
3.09300	7641
3.09367	7646
3.09433	7650
3.09500	7654
3.09567	7658
3.09633	7662
3.09700	7665
3.09767	7668
3.09833	7671
3.09900	7674
3.09967	7676
3.10033	7678
3.10100	7680
3.10167	7682
3.10233	7684
3.10300	7685
3.10367	7686
3.10433	7687
3.10500	7688
3.10567	7688
3.10633	7688
3.10700	7688
3.10767	7688
3.10833	7687
3.10900	7686
3.10967	7685
3.11033	7684
3.11100	7682
3.11167	7681
3.11233	7679
3.11300	7676
3.11367	7674
3.11433	7671
3.11500	7668
3.11567	7665
3.11633	7662
3.11700	7659
3.11767	7655
3.11833	7652
3.11900	7648
3.11967	7644
3.12033	7640
3.12100	7635
3.12167	7631
3.12233	7626
3.12300	7621
3.12367	7617
3.12433	7612
3.12500	7607
3.12567	7602
3.12633	7597
3.12700	7591
3.12767	7586
3.12833	7581
3.12900	7576
3.12967	7570
3.13033	7565
3.13100	7560
3.13167	7554
3.13233	7549
3.13300	7543
3.13367	7538
3.13433	7532
3.13500	7526
3.13567	7521
3.13633	7515
3.13700	7510
3.13767	7504
3.13833	7499
3.13900	7493
3.13967	7488
3.14033	7483
3.14100	7478
3.14167	7472
3.14233	7467
3.14300	7462
3.14367	7457
3.14433	7452
3.14500	7448
3.14567	7443
3.14633	7438
3.14700	7433
3.14767	7429
3.14833	7424
3.14900	7420
3.14967	7415
3.15033	7411
3.15100	7407
3.15167	7402
3.15233	7398
3.15300	7394
3.15367	7390
3.15433	7386
3.15500	7382
3.15567	7379
3.15633	7375
3.15700	7371
3.15767	7368
3.15833	7364
3.15900	7361
3.15967	7358
3.16033	7355
3.16100	7352
3.16167	7349
3.16233	7346
3.16300	7343
3.16367	7340
3.16433	7337
3.16500	7335
3.16567	7332
3.16633	7330
3.16700	7327
3.16767	7325
3.16833	7322
3.16900	7320
3.16967	7318
3.17033	7315
3.17100	7313
3.17167	7311
3.17233	7309
3.17300	7307
3.17367	7305
3.17433	7303
3.17500	7301
3.17567	7299
3.17633	7297
3.17700	7295
3.17767	7294
3.17833	7292
3.17900	7290
3.17967	7289
3.18033	7287
3.18100	7286
3.18167	7284
3.18233	7283
3.18300	7281
3.18367	7280
3.18433	7279
3.18500	7278
3.18567	7277
3.18633	7275
3.18700	7274
3.18767	7273
3.18833	7272
3.18900	7272
3.18967	7271
3.19033	7270
3.19100	7269
3.19167	7268
3.19233	7267
3.19300	7266
3.19367	7265
3.19433	7265
3.19500	7264
3.19567	7263
3.19633	7262
3.19700	7262
3.19767	7261
3.19833	7260
3.19900	7260
3.19967	7259
3.20033	7259
3.20100	7258
3.20167	7258
3.20233	7258
3.20300	7257
3.20367	7257
3.20433	7257
3.20500	7257
3.20567	7257
3.20633	7257
3.20700	7257
3.20767	7257
3.20833	7257
3.20900	7257
3.20967	7257
3.21033	7257
3.21100	7257
3.21167	7258
3.21233	7258
3.21300	7258
3.21367	7258
3.21433	7259
3.21500	7259
3.21567	7259
3.21633	7260
3.21700	7260
3.21767	7260
3.21833	7261
3.21900	7261
3.21967	7262
3.22033	7262
3.22100	7263
3.22167	7263
3.22233	7264
3.22300	7264
3.22367	7265
3.22433	7265
3.22500	7266
3.22567	7267
3.22633	7267
3.22700	7268
3.22767	7269
3.22833	7269
3.22900	7270
3.22967	7271
3.23033	7271
3.23100	7272
3.23167	7273
3.23233	7274
3.23300	7274
3.23367	7275
3.23433	7276
3.23500	7277
3.23567	7278
3.23633	7279
3.23700	7280
3.23767	7281
3.23833	7282
3.23900	7283
3.23967	7284
3.24033	7284
3.24100	7285
3.24167	7286
3.24233	7287
3.24300	7288
3.24367	7289
3.24433	7290
3.24500	7291
3.24567	7292
3.24633	7293
3.24700	7294
3.24767	7295
3.24833	7296
3.24900	7297
3.24967	7298
3.25033	7299
3.25100	7300
3.25167	7301
3.25233	7302
3.25300	7303
3.25367	7305
3.25433	7306
3.25500	7307
3.25567	7308
3.25633	7309
3.25700	7311
3.25767	7312
3.25833	7313
3.25900	7314
3.25967	7315
3.26033	7317
3.26100	7318
3.26167	7319
3.26233	7320
3.26300	7322
3.26367	7323
3.26433	7324
3.26500	7325
3.26567	7327
3.26633	7328
3.26700	7329
3.26767	7331
3.26833	7332
3.26900	7333
3.26967	7335
3.27033	7336
3.27100	7338
3.27167	7339
3.27233	7340
3.27300	7341
3.27367	7343
3.27433	7344
3.27500	7346
3.27567	7347
3.27633	7348
3.27700	7350
3.27767	7351
3.27833	7353
3.27900	7354
3.27967	7355
3.28033	7357
3.28100	7358
3.28167	7360
3.28233	7361
3.28300	7362
3.28367	7364
3.28433	7365
3.28500	7367
3.28567	7368
3.28633	7370
3.28700	7371
3.28767	7372
3.28833	7374
3.28900	7375
3.28967	7376
3.29033	7378
3.29100	7379
3.29167	7381
3.29233	7382
3.29300	7384
3.29367	7385
3.29433	7386
3.29500	7388
3.29567	7389
3.29633	7391
3.29700	7393
3.29767	7394
3.29833	7396
3.29900	7397
3.29967	7399
3.30033	7400
3.30100	7402
3.30167	7404
3.30233	7405
3.30300	7407
3.30367	7408
3.30433	7410
3.30500	7412
3.30567	7413
3.30633	7415
3.30700	7416
3.30767	7418
3.30833	7419
3.30900	7421
3.30967	7422
3.31033	7424
3.31100	7425
3.31167	7427
3.31233	7428
3.31300	7429
3.31367	7431
3.31433	7432
3.31500	7433
3.31567	7435
3.31633	7436
3.31700	7437
3.31767	7439
3.31833	7440
3.31900	7441
3.31967	7443
3.32033	7444
3.32100	7445
3.32167	7447
3.32233	7448
3.32300	7449
3.32367	7450
3.32433	7452
3.32500	7453
3.32567	7454
3.32633	7455
3.32700	7456
3.32767	7457
3.32833	7459
3.32900	7460
3.32967	7461
3.33033	7462
3.33100	7463
3.33167	7464
3.33233	7465
3.33300	7466
3.33367	7467
3.33433	7468
3.33500	7469
3.33567	7470
3.33633	7471
3.33700	7471
3.33767	7472
3.33833	7473
3.33900	7474
3.33967	7475
3.34033	7476
3.34100	7476
3.34167	7477
3.34233	7478
3.34300	7478
3.34367	7479
3.34433	7480
3.34500	7480
3.34567	7481
3.34633	7481
3.34700	7482
3.34767	7483
3.34833	7483
3.34900	7484
3.34967	7484
3.35033	7485
3.35100	7485
3.35167	7486
3.35233	7486
3.35300	7487
3.35367	7487
3.35433	7488
3.35500	7488
3.35567	7488
3.35633	7489
3.35700	7489
3.35767	7489
3.35833	7489
3.35900	7489
3.35967	7489
3.36033	7489
3.36100	7490
3.36167	7490
3.36233	7490
3.36300	7490
3.36367	7490
3.36433	7489
3.36500	7489
3.36567	7489
3.36633	7489
3.36700	7489
3.36767	7489
3.36833	7488
3.36900	7488
3.36967	7488
3.37033	7487
3.37100	7487
3.37167	7487
3.37233	7486
3.37300	7486
3.37367	7486
3.37433	7485
3.37500	7485
3.37567	7484
3.37633	7484
3.37700	7484
3.37767	7483
3.37833	7483
3.37900	7482
3.37967	7481
3.38033	7481
3.38100	7480
3.38167	7480
3.38233	7479
3.38300	7478
3.38367	7478
3.38433	7477
3.38500	7476
3.38567	7475
3.38633	7474
3.38700	7473
3.38767	7472
3.38833	7471
3.38900	7470
3.38967	7469
3.39033	7468
3.39100	7467
3.39167	7466
3.39233	7465
3.39300	7464
3.39367	7462
3.39433	7461
3.39500	7460
3.39567	7458
3.39633	7457
3.39700	7456
3.39767	7455
3.39833	7453
3.39900	7452
3.39967	7451
3.40033	7449
3.40100	7448
3.40167	7446
3.40233	7445
3.40300	7444
3.40367	7442
3.40433	7441
3.40500	7439
3.40567	7438
3.40633	7436
3.40700	7435
3.40767	7433
3.40833	7432
3.40900	7430
3.40967	7429
3.41033	7427
3.41100	7425
3.41167	7424
3.41233	7422
3.41300	7421
3.41367	7419
3.41433	7417
3.41500	7416
3.41567	7414
3.41633	7412
3.41700	7410
3.41767	7409
3.41833	7407
3.41900	7405
3.41967	7403
3.42033	7401
3.42100	7399
3.42167	7397
3.42233	7396
3.42300	7394
3.42367	7392
3.42433	7390
3.42500	7388
3.42567	7386
3.42633	7385
3.42700	7383
3.42767	7381
3.42833	7379
3.42900	7377
3.42967	7376
3.43033	7374
3.43100	7372
3.43167	7371
3.43233	7369
3.43300	7367
3.43367	7365
3.43433	7364
3.43500	7362
3.43567	7360
3.43633	7359
3.43700	7357
3.43767	7355
3.43833	7354
3.43900	7352
3.43967	7351
3.44033	7349
3.44100	7347
3.44167	7346
3.44233	7344
3.44300	7343
3.44367	7341
3.44433	7340
3.44500	7338
3.44567	7337
3.44633	7335
3.44700	7334
3.44767	7333
3.44833	7331
3.44900	7330
3.44967	7328
3.45033	7327
3.45100	7326
3.45167	7325
3.45233	7324
3.45300	7323
3.45367	7321
3.45433	7320
3.45500	7319
3.45567	7318
3.45633	7317
3.45700	7317
3.45767	7316
3.45833	7315
3.45900	7314
3.45967	7314
3.46033	7313
3.46100	7312
3.46167	7312
3.46233	7311
3.46300	7311
3.46367	7310
3.46433	7310
3.46500	7309
3.46567	7309
3.46633	7309
3.46700	7308
3.46767	7308
3.46833	7308
3.46900	7308
3.46967	7308
3.47033	7308
3.47100	7308
3.47167	7308
3.47233	7308
3.47300	7308
3.47367	7309
3.47433	7309
3.47500	7309
3.47567	7310
3.47633	7310
3.47700	7311
3.47767	7311
3.47833	7312
3.47900	7313
3.47967	7314
3.48033	7314
3.48100	7315
3.48167	7316
3.48233	7317
3.48300	7318
3.48367	7319
3.48433	7321
3.48500	7322
3.48567	7324
3.48633	7325
3.48700	7327
3.48767	7329
3.48833	7331
3.48900	7333
3.48967	7335
3.49033	7337
3.49100	7340
3.49167	7342
3.49233	7345
3.49300	7348
3.49367	7351
3.49433	7354
3.49500	7358
3.49567	7362
3.49633	7366
3.49700	7370
3.49767	7374
3.49833	7379
3.49900	7384
3.49967	7389
3.50033	7395
3.50100	7401
3.50167	7407
3.50233	7413
3.50300	7420
3.50367	7428
3.50433	7435
3.50500	7443
3.50567	7452
3.50633	7461
3.50700	7470
3.50767	7480
3.50833	7491
3.50900	7502
3.50967	7513
3.51033	7525
3.51100	7538
3.51167	7551
3.51233	7565
3.51300	7580
3.51367	7595
3.51433	7611
3.51500	7627
3.51567	7645
3.51633	7663
3.51700	7682
3.51767	7702
3.51833	7723
3.51900	7744
3.51967	7767
3.52033	7791
3.52100	7815
3.52167	7841
3.52233	7867
3.52300	7895
3.52367	7923
3.52433	7953
3.52500	7984
3.52567	8015
3.52633	8048
3.52700	8082
3.52767	8118
3.52833	8154
3.52900	8191
3.52967	8230
3.53033	8270
3.53100	8311
3.53167	8353
3.53233	8397
3.53300	8441
3.53367	8487
3.53433	8533
3.53500	8581
3.53567	8630
3.53633	8680
3.53700	8732
3.53767	8784
3.53833	8837
3.53900	8891
3.53967	8947
3.54033	9003
3.54100	9061
3.54167	9120
3.54233	9179
3.54300	9240
3.54367	9301
3.54433	9363
3.54500	9427
3.54567	9491
3.54633	9556
3.54700	9621
3.54767	9688
3.54833	9755
3.54900	9823
3.54967	9891
3.55033	9960
3.55100	10030
3.55167	10100
3.55233	10170
3.55300	10241
3.55367	10312
3.55433	10383
3.55500	10454
3.55567	10525
3.55633	10597
3.55700	10668
3.55767	10739
3.55833	10809
3.55900	10880
3.55967	10950
3.56033	11019
3.56100	11089
3.56167	11157
3.56233	11226
3.56300	11293
3.56367	11361
3.56433	11427
3.56500	11493
3.56567	11559
3.56633	11623
3.56700	11688
3.56767	11751
3.56833	11814
3.56900	11876
3.56967	11937
3.57033	11997
3.57100	12057
3.57167	12116
3.57233	12174
3.57300	12231
3.57367	12288
3.57433	12344
3.57500	12399
3.57567	12453
3.57633	12506
3.57700	12558
3.57767	12610
3.57833	12660
3.57900	12710
3.57967	12759
3.58033	12807
3.58100	12854
3.58167	12900
3.58233	12946
3.58300	12990
3.58367	13034
3.58433	13077
3.58500	13119
3.58567	13160
3.58633	13201
3.58700	13240
3.58767	13279
3.58833	13317
3.58900	13354
3.58967	13390
3.59033	13426
3.59100	13461
3.59167	13495
3.59233	13529
3.59300	13562
3.59367	13594
3.59433	13626
3.59500	13657
3.59567	13688
3.59633	13718
3.59700	13747
3.59767	13776
3.59833	13805
3.59900	13832
3.59967	13860
3.60033	13886
3.60100	13912
3.60167	13938
3.60233	13963
3.60300	13987
3.60367	14011
3.60433	14033
3.60500	14056
3.60567	14077
3.60633	14098
3.60700	14118
3.60767	14137
3.60833	14155
3.60900	14173
3.60967	14189
3.61033	14205
3.61100	14220
3.61167	14234
3.61233	14247
3.61300	14259
3.61367	14270
3.61433	14281
3.61500	14290
3.61567	14298
3.61633	14305
3.61700	14310
3.61767	14315
3.61833	14318
3.61900	14320
3.61967	14321
3.62033	14320
3.62100	14318
3.62167	14315
3.62233	14310
3.62300	14304
3.62367	14297
3.62433	14288
3.62500	14278
3.62567	14267
3.62633	14254
3.62700	14240
3.62767	14224
3.62833	14207
3.62900	14189
3.62967	14169
3.63033	14148
3.63100	14126
3.63167	14102
3.63233	14077
3.63300	14051
3.63367	14023
3.63433	13994
3.63500	13963
3.63567	13931
3.63633	13898
3.63700	13864
3.63767	13828
3.63833	13791
3.63900	13752
3.63967	13713
3.64033	13672
3.64100	13630
3.64167	13586
3.64233	13542
3.64300	13497
3.64367	13450
3.64433	13403
3.64500	13354
3.64567	13305
3.64633	13254
3.64700	13203
3.64767	13151
3.64833	13098
3.64900	13045
3.64967	12990
3.65033	12935
3.65100	12879
3.65167	12823
3.65233	12766
3.65300	12708
3.65367	12650
3.65433	12592
3.65500	12533
3.65567	12473
3.65633	12414
3.65700	12354
3.65767	12294
3.65833	12233
3.65900	12173
3.65967	12112
3.66033	12051
3.66100	11990
3.66167	11929
3.66233	11868
3.66300	11807
3.66367	11746
3.66433	11686
3.66500	11625
3.66567	11565
3.66633	11504
3.66700	11444
3.66767	11385
3.66833	11325
3.66900	11266
3.66967	11207
3.67033	11148
3.67100	11090
3.67167	11032
3.67233	10975
3.67300	10918
3.67367	10861
3.67433	10805
3.67500	10749
3.67567	10694
3.67633	10639
3.67700	10585
3.67767	10531
3.67833	10477
3.67900	10425
3.67967	10372
3.68033	10321
3.68100	10269
3.68167	10219
3.68233	10169
3.68300	10119
3.68367	10071
3.68433	10023
3.68500	9975
3.68567	9928
3.68633	9882
3.68700	9836
3.68767	9791
3.68833	9746
3.68900	9702
3.68967	9658
3.69033	9615
3.69100	9573
3.69167	9531
3.69233	9490
3.69300	9449
3.69367	9409
3.69433	9370
3.69500	9331
3.69567	9293
3.69633	9255
3.69700	9218
3.69767	9181
3.69833	9145
3.69900	9110
3.69967	9075
3.70033	9041
3.70100	9007
3.70167	8974
3.70233	8941
3.70300	8909
3.70367	8877
3.70433	8846
3.70500	8815
3.70567	8785
3.70633	8755
3.70700	8726
3.70767	8697
3.70833	8669
3.70900	8641
3.70967	8614
3.71033	8587
3.71100	8560
3.71167	8534
3.71233	8508
3.71300	8483
3.71367	8458
3.71433	8434
3.71500	8410
3.71567	8386
3.71633	8363
3.71700	8340
3.71767	8318
3.71833	8295
3.71900	8274
3.71967	8252
3.72033	8231
3.72100	8210
3.72167	8190
3.72233	8170
3.72300	8150
3.72367	8131
3.72433	8111
3.72500	8093
3.72567	8074
3.72633	8056
3.72700	8038
3.72767	8020
3.72833	8003
3.72900	7986
3.72967	7969
3.73033	7952
3.73100	7936
3.73167	7920
3.73233	7904
3.73300	7888
3.73367	7873
3.73433	7858
3.73500	7843
3.73567	7828
3.73633	7814
3.73700	7799
3.73767	7785
3.73833	7771
3.73900	7758
3.73967	7744
3.74033	7731
3.74100	7717
3.74167	7704
3.74233	7692
3.74300	7679
3.74367	7666
3.74433	7654
3.74500	7642
3.74567	7630
3.74633	7618
3.74700	7606
3.74767	7595
3.74833	7583
3.74900	7572
3.74967	7561
3.75033	7550
3.75100	7539
3.75167	7528
3.75233	7517
3.75300	7507
3.75367	7496
3.75433	7486
3.75500	7476
3.75567	7466
3.75633	7456
3.75700	7446
3.75767	7436
3.75833	7427
3.75900	7417
3.75967	7408
3.76033	7399
3.76100	7390
3.76167	7381
3.76233	7372
3.76300	7364
3.76367	7355
3.76433	7346
3.76500	7338
3.76567	7329
3.76633	7321
3.76700	7313
3.76767	7304
3.76833	7296
3.76900	7288
3.76967	7280
3.77033	7273
3.77100	7265
3.77167	7257
3.77233	7249
3.77300	7242
3.77367	7234
3.77433	7227
3.77500	7220
3.77567	7213
3.77633	7206
3.77700	7199
3.77767	7192
3.77833	7185
3.77900	7178
3.77967	7171
3.78033	7165
3.78100	7158
3.78167	7151
3.78233	7145
3.78300	7138
3.78367	7132
3.78433	7126
3.78500	7119
3.78567	7113
3.78633	7107
3.78700	7100
3.78767	7094
3.78833	7088
3.78900	7082
3.78967	7076
3.79033	7070
3.79100	7064
3.79167	7058
3.79233	7052
3.79300	7047
3.79367	7041
3.79433	7035
3.79500	7030
3.79567	7024
3.79633	7019
3.79700	7013
3.79767	7008
3.79833	7002
3.79900	6997
3.79967	6992
3.80033	6987
3.80100	6981
3.80167	6976
3.80233	6971
3.80300	6966
3.80367	6961
3.80433	6956
3.80500	6951
3.80567	6946
3.80633	6941
3.80700	6936
3.80767	6931
3.80833	6926
3.80900	6921
3.80967	6916
3.81033	6911
3.81100	6906
3.81167	6902
3.81233	6897
3.81300	6892
3.81367	6888
3.81433	6883
3.81500	6878
3.81567	6874
3.81633	6869
3.81700	6865
3.81767	6860
3.81833	6856
3.81900	6852
3.81967	6847
3.82033	6843
3.82100	6839
3.82167	6834
3.82233	6830
3.82300	6826
3.82367	6822
3.82433	6818
3.82500	6814
3.82567	6810
3.82633	6806
3.82700	6802
3.82767	6798
3.82833	6794
3.82900	6790
3.82967	6787
3.83033	6783
3.83100	6779
3.83167	6776
3.83233	6772
3.83300	6769
3.83367	6765
3.83433	6762
3.83500	6758
3.83567	6755
3.83633	6751
3.83700	6748
3.83767	6744
3.83833	6741
3.83900	6737
3.83967	6734
3.84033	6731
3.84100	6727
3.84167	6724
3.84233	6721
3.84300	6717
3.84367	6714
3.84433	6711
3.84500	6707
3.84567	6704
3.84633	6701
3.84700	6698
3.84767	6695
3.84833	6692
3.84900	6688
3.84967	6685
3.85033	6682
3.85100	6679
3.85167	6676
3.85233	6673
3.85300	6670
3.85367	6667
3.85433	6664
3.85500	6661
3.85567	6658
3.85633	6655
3.85700	6652
3.85767	6649
3.85833	6647
3.85900	6644
3.85967	6641
3.86033	6638
3.86100	6635
3.86167	6633
3.86233	6630
3.86300	6627
3.86367	6624
3.86433	6622
3.86500	6619
3.86567	6616
3.86633	6614
3.86700	6611
3.86767	6608
3.86833	6606
3.86900	6603
3.86967	6601
3.87033	6598
3.87100	6596
3.87167	6593
3.87233	6591
3.87300	6588
3.87367	6586
3.87433	6583
3.87500	6581
3.87567	6579
3.87633	6576
3.87700	6574
3.87767	6571
3.87833	6569
3.87900	6567
3.87967	6564
3.88033	6562
3.88100	6560
3.88167	6557
3.88233	6555
3.88300	6553
3.88367	6551
3.88433	6548
3.88500	6546
3.88567	6544
3.88633	6542
3.88700	6539
3.88767	6537
3.88833	6535
3.88900	6533
3.88967	6531
3.89033	6529
3.89100	6526
3.89167	6524
3.89233	6522
3.89300	6520
3.89367	6518
3.89433	6516
3.89500	6514
3.89567	6512
3.89633	6510
3.89700	6508
3.89767	6506
3.89833	6503
3.89900	6501
3.89967	6499
3.90033	6498
3.90100	6496
3.90167	6494
3.90233	6492
3.90300	6490
3.90367	6488
3.90433	6486
3.90500	6484
3.90567	6482
3.90633	6480
3.90700	6479
3.90767	6477
3.90833	6475
3.90900	6473
3.90967	6471
3.91033	6470
3.91100	6468
3.91167	6466
3.91233	6464
3.91300	6463
3.91367	6461
3.91433	6459
3.91500	6458
3.91567	6456
3.91633	6454
3.91700	6453
3.91767	6451
3.91833	6450
3.91900	6448
3.91967	6446
3.92033	6445
3.92100	6443
3.92167	6442
3.92233	6440
3.92300	6438
3.92367	6437
3.92433	6435
3.92500	6433
3.92567	6432
3.92633	6430
3.92700	6428
3.92767	6427
3.92833	6425
3.92900	6423
3.92967	6422
3.93033	6420
3.93100	6418
3.93167	6417
3.93233	6415
3.93300	6413
3.93367	6411
3.93433	6410
3.93500	6408
3.93567	6406
3.93633	6404
3.93700	6403
3.93767	6401
3.93833	6399
3.93900	6398
3.93967	6396
3.94033	6394
3.94100	6392
3.94167	6391
3.94233	6389
3.94300	6387
3.94367	6386
3.94433	6384
3.94500	6382
3.94567	6381
3.94633	6379
3.94700	6377
3.94767	6375
3.94833	6374
3.94900	6372
3.94967	6370
3.95033	6369
3.95100	6367
3.95167	6365
3.95233	6364
3.95300	6362
3.95367	6360
3.95433	6359
3.95500	6357
3.95567	6355
3.95633	6354
3.95700	6352
3.95767	6351
3.95833	6349
3.95900	6347
3.95967	6346
3.96033	6345
3.96100	6343
3.96167	6342
3.96233	6340
3.96300	6339
3.96367	6337
3.96433	6336
3.96500	6334
3.96567	6333
3.96633	6332
3.96700	6330
3.96767	6329
3.96833	6328
3.96900	6326
3.96967	6325
3.97033	6324
3.97100	6323
3.97167	6321
3.97233	6320
3.97300	6319
3.97367	6318
3.97433	6316
3.97500	6315
3.97567	6314
3.97633	6313
3.97700	6312
3.97767	6310
3.97833	6309
3.97900	6308
3.97967	6307
3.98033	6306
3.98100	6305
3.98167	6304
3.98233	6303
3.98300	6302
3.98367	6301
3.98433	6300
3.98500	6299
3.98567	6298
3.98633	6297
3.98700	6296
3.98767	6295
3.98833	6294
3.98900	6293
3.98967	6292
3.99033	6291
3.99100	6291
3.99167	6290
3.99233	6289
3.99300	6288
3.99367	6287
3.99433	6287
3.99500	6286
3.99567	6285
3.99633	6284
3.99700	6284
3.99767	6283
3.99833	6282
3.99900	6282
3.99967	6281
4.00033	6280
4.00100	6280
4.00167	6279
4.00233	6279
4.00300	6278
4.00367	6277
4.00433	6277
4.00500	6277
4.00567	6276
4.00633	6276
4.00700	6275
4.00767	6275
4.00833	6275
4.00900	6274
4.00967	6274
4.01033	6274
4.01100	6274
4.01167	6274
4.01233	6274
4.01300	6274
4.01367	6273
4.01433	6274
4.01500	6274
4.01567	6274
4.01633	6274
4.01700	6274
4.01767	6274
4.01833	6274
4.01900	6275
4.01967	6275
4.02033	6275
4.02100	6276
4.02167	6276
4.02233	6277
4.02300	6277
4.02367	6278
4.02433	6279
4.02500	6279
4.02567	6280
4.02633	6281
4.02700	6282
4.02767	6283
4.02833	6283
4.02900	6284
4.02967	6285
4.03033	6286
4.03100	6288
4.03167	6289
4.03233	6290
4.03300	6292
4.03367	6293
4.03433	6294
4.03500	6296
4.03567	6298
4.03633	6299
4.03700	6301
4.03767	6303
4.03833	6304
4.03900	6306
4.03967	6308
4.04033	6310
4.04100	6312
4.04167	6314
4.04233	6316
4.04300	6318
4.04367	6321
4.04433	6323
4.04500	6325
4.04567	6327
4.04633	6330
4.04700	6332
4.04767	6335
4.04833	6337
4.04900	6340
4.04967	6343
4.05033	6345
4.05100	6348
4.05167	6351
4.05233	6354
4.05300	6357
4.05367	6359
4.05433	6362
4.05500	6365
4.05567	6369
4.05633	6372
4.05700	6375
4.05767	6378
4.05833	6381
4.05900	6384
4.05967	6388
4.06033	6391
4.06100	6394
4.06167	6398
4.06233	6401
4.06300	6404
4.06367	6408
4.06433	6411
4.06500	6415
4.06567	6418
4.06633	6422
4.06700	6426
4.06767	6429
4.06833	6433
4.06900	6436
4.06967	6440
4.07033	6444
4.07100	6447
4.07167	6451
4.07233	6455
4.07300	6459
4.07367	6462
4.07433	6466
4.07500	6470
4.07567	6474
4.07633	6477
4.07700	6481
4.07767	6485
4.07833	6489
4.07900	6493
4.07967	6497
4.08033	6500
4.08100	6504
4.08167	6508
4.08233	6512
4.08300	6516
4.08367	6520
4.08433	6524
4.08500	6528
4.08567	6532
4.08633	6536
4.08700	6540
4.08767	6544
4.08833	6548
4.08900	6552
4.08967	6556
4.09033	6559
4.09100	6563
4.09167	6567
4.09233	6571
4.09300	6575
4.09367	6579
4.09433	6582
4.09500	6586
4.09567	6590
4.09633	6594
4.09700	6598
4.09767	6602
4.09833	6606
4.09900	6609
4.09967	6613
4.10033	6617
4.10100	6621
4.10167	6625
4.10233	6629
4.10300	6633
4.10367	6637
4.10433	6640
4.10500	6644
4.10567	6648
4.10633	6652
4.10700	6656
4.10767	6660
4.10833	6664
4.10900	6668
4.10967	6672
4.11033	6676
4.11100	6681
4.11167	6685
4.11233	6689
4.11300	6693
4.11367	6697
4.11433	6702
4.11500	6706
4.11567	6711
4.11633	6715
4.11700	6720
4.11767	6724
4.11833	6729
4.11900	6733
4.11967	6738
4.12033	6743
4.12100	6747
4.12167	6752
4.12233	6757
4.12300	6762
4.12367	6767
4.12433	6772
4.12500	6777
4.12567	6782
4.12633	6788
4.12700	6793
4.12767	6798
4.12833	6804
4.12900	6809
4.12967	6815
4.13033	6821
4.13100	6826
4.13167	6832
4.13233	6838
4.13300	6844
4.13367	6850
4.13433	6856
4.13500	6863
4.13567	6869
4.13633	6876
4.13700	6882
4.13767	6889
4.13833	6896
4.13900	6903
4.13967	6910
4.14033	6917
4.14100	6924
4.14167	6932
4.14233	6940
4.14300	6947
4.14367	6955
4.14433	6964
4.14500	6972
4.14567	6980
4.14633	6989
4.14700	6998
4.14767	7007
4.14833	7016
4.14900	7025
4.14967	7035
4.15033	7044
4.15100	7054
4.15167	7065
4.15233	7075
4.15300	7085
4.15367	7096
4.15433	7107
4.15500	7118
4.15567	7130
4.15633	7142
4.15700	7154
4.15767	7166
4.15833	7178
4.15900	7191
4.15967	7203
4.16033	7217
4.16100	7230
4.16167	7244
4.16233	7258
4.16300	7273
4.16367	7287
4.16433	7303
4.16500	7318
4.16567	7334
4.16633	7350
4.16700	7367
4.16767	7384
4.16833	7401
4.16900	7419
4.16967	7437
4.17033	7455
4.17100	7474
4.17167	7494
4.17233	7514
4.17300	7534
4.17367	7555
4.17433	7576
4.17500	7598
4.17567	7621
4.17633	7644
4.17700	7667
4.17767	7691
4.17833	7715
4.17900	7740
4.17967	7765
4.18033	7791
4.18100	7818
4.18167	7845
4.18233	7873
4.18300	7901
4.18367	7930
4.18433	7960
4.18500	7990
4.18567	8021
4.18633	8053
4.18700	8085
4.18767	8118
4.18833	8152
4.18900	8187
4.18967	8222
4.19033	8258
4.19100	8295
4.19167	8332
4.19233	8370
4.19300	8409
4.19367	8449
4.19433	8490
4.19500	8531
4.19567	8573
4.19633	8616
4.19700	8660
4.19767	8705
4.19833	8751
4.19900	8797
4.19967	8845
4.20033	8894
4.20100	8943
4.20167	8994
4.20233	9045
4.20300	9098
4.20367	9152
4.20433	9206
4.20500	9262
4.20567	9319
4.20633	9377
4.20700	9436
4.20767	9497
4.20833	9558
4.20900	9621
4.20967	9685
4.21033	9750
4.21100	9817
4.21167	9885
4.21233	9955
4.21300	10025
4.21367	10097
4.21433	10171
4.21500	10246
4.21567	10323
4.21633	10401
4.21700	10481
4.21767	10563
4.21833	10646
4.21900	10731
4.21967	10818
4.22033	10906
4.22100	10997
4.22167	11089
4.22233	11183
4.22300	11278
4.22367	11376
4.22433	11476
4.22500	11578
4.22567	11682
4.22633	11788
4.22700	11896
4.22767	12006
4.22833	12118
4.22900	12233
4.22967	12349
4.23033	12468
4.23100	12589
4.23167	12712
4.23233	12838
4.23300	12966
4.23367	13097
4.23433	13230
4.23500	13366
4.23567	13504
4.23633	13644
4.23700	13787
4.23767	13933
4.23833	14081
4.23900	14232
4.23967	14385
4.24033	14541
4.24100	14699
4.24167	14861
4.24233	15024
4.24300	15190
4.24367	15359
4.24433	15531
4.24500	15704
4.24567	15881
4.24633	16060
4.24700	16241
4.24767	16425
4.24833	16612
4.24900	16801
4.24967	16993
4.25033	17188
4.25100	17385
4.25167	17584
4.25233	17787
4.25300	17992
4.25367	18199
4.25433	18409
4.25500	18622
4.25567	18837
4.25633	19055
4.25700	19275
4.25767	19498
4.25833	19723
4.25900	19951
4.25967	20182
4.26033	20415
4.26100	20650
4.26167	20888
4.26233	21128
4.26300	21370
4.26367	21614
4.26433	21860
4.26500	22107
4.26567	22357
4.26633	22608
4.26700	22860
4.26767	23114
4.26833	23370
4.26900	23627
4.26967	23884
4.27033	24143
4.27100	24403
4.27167	24664
4.27233	24926
4.27300	25188
4.27367	25452
4.27433	25715
4.27500	25980
4.27567	26245
4.27633	26510
4.27700	26776
4.27767	27042
4.27833	27309
4.27900	27575
4.27967	27841
4.28033	28108
4.28100	28374
4.28167	28640
4.28233	28906
4.28300	29171
4.28367	29435
4.28433	29699
4.28500	29962
4.28567	30225
4.28633	30486
4.28700	30747
4.28767	31007
4.28833	31267
4.28900	31525
4.28967	31782
4.29033	32039
4.29100	32294
4.29167	32548
4.29233	32801
4.29300	33052
4.29367	33302
4.29433	33551
4.29500	33797
4.29567	34042
4.29633	34286
4.29700	34527
4.29767	34766
4.29833	35004
4.29900	35239
4.29967	35473
4.30033	35704
4.30100	35933
4.30167	36160
4.30233	36386
4.30300	36609
4.30367	36830
4.30433	37049
4.30500	37267
4.30567	37482
4.30633	37695
4.30700	37907
4.30767	38116
4.30833	38323
4.30900	38528
4.30967	38731
4.31033	38931
4.31100	39129
4.31167	39324
4.31233	39518
4.31300	39708
4.31367	39896
4.31433	40082
4.31500	40265
4.31567	40445
4.31633	40623
4.31700	40797
4.31767	40969
4.31833	41138
4.31900	41303
4.31967	41466
4.32033	41624
4.32100	41779
4.32167	41931
4.32233	42078
4.32300	42222
4.32367	42361
4.32433	42496
4.32500	42627
4.32567	42753
4.32633	42875
4.32700	42992
4.32767	43105
4.32833	43214
4.32900	43318
4.32967	43417
4.33033	43511
4.33100	43601
4.33167	43685
4.33233	43765
4.33300	43840
4.33367	43909
4.33433	43974
4.33500	44034
4.33567	44089
4.33633	44139
4.33700	44184
4.33767	44225
4.33833	44260
4.33900	44290
4.33967	44316
4.34033	44336
4.34100	44352
4.34167	44363
4.34233	44368
4.34300	44368
4.34367	44364
4.34433	44354
4.34500	44339
4.34567	44319
4.34633	44294
4.34700	44264
4.34767	44229
4.34833	44189
4.34900	44143
4.34967	44093
4.35033	44037
4.35100	43976
4.35167	43909
4.35233	43838
4.35300	43760
4.35367	43678
4.35433	43591
4.35500	43498
4.35567	43400
4.35633	43296
4.35700	43188
4.35767	43075
4.35833	42956
4.35900	42833
4.35967	42705
4.36033	42572
4.36100	42434
4.36167	42291
4.36233	42144
4.36300	41992
4.36367	41836
4.36433	41676
4.36500	41511
4.36567	41342
4.36633	41169
4.36700	40992
4.36767	40811
4.36833	40627
4.36900	40439
4.36967	40248
4.37033	40053
4.37100	39855
4.37167	39654
4.37233	39450
4.37300	39243
4.37367	39034
4.37433	38822
4.37500	38607
4.37567	38390
4.37633	38170
4.37700	37949
4.37767	37726
4.37833	37501
4.37900	37274
4.37967	37046
4.38033	36817
4.38100	36587
4.38167	36356
4.38233	36124
4.38300	35891
4.38367	35658
4.38433	35425
4.38500	35192
4.38567	34959
4.38633	34726
4.38700	34493
4.38767	34261
4.38833	34029
4.38900	33799
4.38967	33569
4.39033	33340
4.39100	33112
4.39167	32885
4.39233	32660
4.39300	32436
4.39367	32213
4.39433	31992
4.39500	31772
4.39567	31554
4.39633	31338
4.39700	31123
4.39767	30910
4.39833	30698
4.39900	30489
4.39967	30282
4.40033	30076
4.40100	29873
4.40167	29671
4.40233	29472
4.40300	29274
4.40367	29079
4.40433	28887
4.40500	28696
4.40567	28508
4.40633	28322
4.40700	28138
4.40767	27957
4.40833	27778
4.40900	27602
4.40967	27428
4.41033	27257
4.41100	27088
4.41167	26922
4.41233	26758
4.41300	26597
4.41367	26438
4.41433	26282
4.41500	26128
4.41567	25977
4.41633	25829
4.41700	25682
4.41767	25539
4.41833	25397
4.41900	25259
4.41967	25122
4.42033	24988
4.42100	24857
4.42167	24728
4.42233	24601
4.42300	24477
4.42367	24354
4.42433	24234
4.42500	24117
4.42567	24001
4.42633	23888
4.42700	23777
4.42767	23669
4.42833	23562
4.42900	23458
4.42967	23355
4.43033	23255
4.43100	23156
4.43167	23060
4.43233	22965
4.43300	22872
4.43367	22780
4.43433	22691
4.43500	22603
4.43567	22516
4.43633	22431
4.43700	22347
4.43767	22265
4.43833	22184
4.43900	22104
4.43967	22025
4.44033	21948
4.44100	21871
4.44167	21796
4.44233	21721
4.44300	21648
4.44367	21576
4.44433	21504
4.44500	21433
4.44567	21363
4.44633	21294
4.44700	21225
4.44767	21157
4.44833	21089
4.44900	21022
4.44967	20956
4.45033	20890
4.45100	20825
4.45167	20760
4.45233	20696
4.45300	20632
4.45367	20568
4.45433	20505
4.45500	20442
4.45567	20380
4.45633	20317
4.45700	20255
4.45767	20194
4.45833	20132
4.45900	20071
4.45967	20010
4.46033	19949
4.46100	19888
4.46167	19827
4.46233	19767
4.46300	19706
4.46367	19646
4.46433	19585
4.46500	19525
4.46567	19465
4.46633	19405
4.46700	19345
4.46767	19285
4.46833	19225
4.46900	19165
4.46967	19105
4.47033	19045
4.47100	18986
4.47167	18926
4.47233	18866
4.47300	18807
4.47367	18747
4.47433	18688
4.47500	18629
4.47567	18569
4.47633	18510
4.47700	18451
4.47767	18392
4.47833	18332
4.47900	18273
4.47967	18214
4.48033	18154
4.48100	18095
4.48167	18035
4.48233	17976
4.48300	17916
4.48367	17857
4.48433	17797
4.48500	17738
4.48567	17678
4.48633	17619
4.48700	17560
4.48767	17501
4.48833	17441
4.48900	17382
4.48967	17323
4.49033	17264
4.49100	17206
4.49167	17147
4.49233	17088
4.49300	17030
4.49367	16972
4.49433	16914
4.49500	16856
4.49567	16798
4.49633	16741
4.49700	16684
4.49767	16627
4.49833	16570
4.49900	16514
4.49967	16458
4.50033	16402
4.50100	16346
4.50167	16291
4.50233	16236
4.50300	16182
4.50367	16128
4.50433	16075
4.50500	16022
4.50567	15969
4.50633	15917
4.50700	15866
4.50767	15815
4.50833	15764
4.50900	15714
4.50967	15665
4.51033	15616
4.51100	15568
4.51167	15521
4.51233	15474
4.51300	15428
4.51367	15382
4.51433	15337
4.51500	15293
4.51567	15249
4.51633	15206
4.51700	15163
4.51767	15122
4.51833	15081
4.51900	15041
4.51967	15001
4.52033	14962
4.52100	14925
4.52167	14888
4.52233	14851
4.52300	14816
4.52367	14782
4.52433	14748
4.52500	14716
4.52567	14684
4.52633	14654
4.52700	14624
4.52767	14595
4.52833	14568
4.52900	14541
4.52967	14516
4.53033	14491
4.53100	14468
4.53167	14446
4.53233	14425
4.53300	14405
4.53367	14386
4.53433	14368
4.53500	14352
4.53567	14336
4.53633	14322
4.53700	14309
4.53767	14297
4.53833	14287
4.53900	14277
4.53967	14269
4.54033	14262
4.54100	14257
4.54167	14253
4.54233	14250
4.54300	14248
4.54367	14248
4.54433	14248
4.54500	14251
4.54567	14254
4.54633	14259
4.54700	14266
4.54767	14273
4.54833	14282
4.54900	14292
4.54967	14303
4.55033	14316
4.55100	14330
4.55167	14345
4.55233	14362
4.55300	14379
4.55367	14398
4.55433	14418
4.55500	14439
4.55567	14462
4.55633	14485
4.55700	14510
4.55767	14536
4.55833	14563
4.55900	14592
4.55967	14621
4.56033	14652
4.56100	14683
4.56167	14716
4.56233	14750
4.56300	14784
4.56367	14820
4.56433	14857
4.56500	14894
4.56567	14933
4.56633	14972
4.56700	15013
4.56767	15054
4.56833	15096
4.56900	15138
4.56967	15182
4.57033	15226
4.57100	15271
4.57167	15317
4.57233	15363
4.57300	15409
4.57367	15456
4.57433	15504
4.57500	15552
4.57567	15600
4.57633	15648
4.57700	15697
4.57767	15745
4.57833	15794
4.57900	15843
4.57967	15892
4.58033	15941
4.58100	15990
4.58167	16039
4.58233	16088
4.58300	16137
4.58367	16186
4.58433	16235
4.58500	16283
4.58567	16332
4.58633	16380
4.58700	16428
4.58767	16475
4.58833	16523
4.58900	16570
4.58967	16616
4.59033	16662
4.59100	16708
4.59167	16753
4.59233	16797
4.59300	16841
4.59367	16884
4.59433	16926
4.59500	16968
4.59567	17009
4.59633	17048
4.59700	17087
4.59767	17126
4.59833	17163
4.59900	17199
4.59967	17235
4.60033	17269
4.60100	17302
4.60167	17335
4.60233	17366
4.60300	17397
4.60367	17426
4.60433	17454
4.60500	17481
4.60567	17506
4.60633	17531
4.60700	17554
4.60767	17576
4.60833	17597
4.60900	17616
4.60967	17635
4.61033	17652
4.61100	17668
4.61167	17683
4.61233	17697
4.61300	17710
4.61367	17721
4.61433	17732
4.61500	17741
4.61567	17749
4.61633	17755
4.61700	17761
4.61767	17765
4.61833	17768
4.61900	17770
4.61967	17771
4.62033	17770
4.62100	17769
4.62167	17766
4.62233	17762
4.62300	17757
4.62367	17751
4.62433	17744
4.62500	17736
4.62567	17727
4.62633	17716
4.62700	17705
4.62767	17692
4.62833	17679
4.62900	17664
4.62967	17649
4.63033	17632
4.63100	17615
4.63167	17596
4.63233	17577
4.63300	17557
4.63367	17535
4.63433	17513
4.63500	17490
4.63567	17466
4.63633	17441
4.63700	17416
4.63767	17389
4.63833	17362
4.63900	17334
4.63967	17305
4.64033	17276
4.64100	17245
4.64167	17214
4.64233	17183
4.64300	17150
4.64367	17117
4.64433	17084
4.64500	17050
4.64567	17015
4.64633	16980
4.64700	16944
4.64767	16908
4.64833	16871
4.64900	16834
4.64967	16796
4.65033	16758
4.65100	16719
4.65167	16680
4.65233	16641
4.65300	16601
4.65367	16561
4.65433	16521
4.65500	16480
4.65567	16439
4.65633	16398
4.65700	16357
4.65767	16315
4.65833	16273
4.65900	16232
4.65967	16190
4.66033	16148
4.66100	16106
4.66167	16063
4.66233	16021
4.66300	15979
4.66367	15936
4.66433	15894
4.66500	15851
4.66567	15809
4.66633	15767
4.66700	15724
4.66767	15682
4.66833	15640
4.66900	15598
4.66967	15555
4.67033	15513
4.67100	15471
4.67167	15430
4.67233	15388
4.67300	15346
4.67367	15305
4.67433	15264
4.67500	15223
4.67567	15182
4.67633	15141
4.67700	15100
4.67767	15060
4.67833	15020
4.67900	14980
4.67967	14940
4.68033	14900
4.68100	14860
4.68167	14821
4.68233	14781
4.68300	14742
4.68367	14703
4.68433	14665
4.68500	14627
4.68567	14588
4.68633	14551
4.68700	14513
4.68767	14476
4.68833	14439
4.68900	14402
4.68967	14365
4.69033	14329
4.69100	14293
4.69167	14257
4.69233	14222
4.69300	14187
4.69367	14152
4.69433	14117
4.69500	14082
4.69567	14048
4.69633	14014
4.69700	13981
4.69767	13948
4.69833	13915
4.69900	13882
4.69967	13850
4.70033	13818
4.70100	13786
4.70167	13755
4.70233	13724
4.70300	13693
4.70367	13663
4.70433	13633
4.70500	13603
4.70567	13573
4.70633	13544
4.70700	13515
4.70767	13486
4.70833	13457
4.70900	13429
4.70967	13401
4.71033	13373
4.71100	13346
4.71167	13319
4.71233	13292
4.71300	13265
4.71367	13239
4.71433	13213
4.71500	13187
4.71567	13162
4.71633	13137
4.71700	13112
4.71767	13088
4.71833	13063
4.71900	13039
4.71967	13016
4.72033	12992
4.72100	12969
4.72167	12946
4.72233	12923
4.72300	12901
4.72367	12879
4.72433	12857
4.72500	12836
4.72567	12815
4.72633	12794
4.72700	12773
4.72767	12753
4.72833	12733
4.72900	12713
4.72967	12693
4.73033	12674
4.73100	12655
4.73167	12636
4.73233	12618
4.73300	12600
4.73367	12582
4.73433	12564
4.73500	12546
4.73567	12529
4.73633	12511
4.73700	12494
4.73767	12477
4.73833	12461
4.73900	12444
4.73967	12428
4.74033	12411
4.74100	12395
4.74167	12379
4.74233	12363
4.74300	12347
4.74367	12331
4.74433	12315
4.74500	12299
4.74567	12283
4.74633	12268
4.74700	12252
4.74767	12237
4.74833	12221
4.74900	12206
4.74967	12191
4.75033	12176
4.75100	12161
4.75167	12146
4.75233	12131
4.75300	12116
4.75367	12102
4.75433	12087
4.75500	12073
4.75567	12058
4.75633	12044
4.75700	12030
4.75767	12016
4.75833	12002
4.75900	11988
4.75967	11974
4.76033	11960
4.76100	11947
4.76167	11933
4.76233	11920
4.76300	11907
4.76367	11894
4.76433	11881
4.76500	11868
4.76567	11855
4.76633	11842
4.76700	11830
4.76767	11817
4.76833	11805
4.76900	11793
4.76967	11780
4.77033	11768
4.77100	11756
4.77167	11744
4.77233	11732
4.77300	11720
4.77367	11708
4.77433	11697
4.77500	11685
4.77567	11673
4.77633	11662
4.77700	11650
4.77767	11639
4.77833	11628
4.77900	11617
4.77967	11606
4.78033	11595
4.78100	11584
4.78167	11573
4.78233	11563
4.78300	11552
4.78367	11542
4.78433	11531
4.78500	11521
4.78567	11511
4.78633	11501
4.78700	11490
4.78767	11480
4.78833	11471
4.78900	11461
4.78967	11451
4.79033	11441
4.79100	11431
4.79167	11422
4.79233	11412
4.79300	11402
4.79367	11393
4.79433	11383
4.79500	11374
4.79567	11364
4.79633	11355
4.79700	11346
4.79767	11336
4.79833	11327
4.79900	11318
4.79967	11309
4.80033	11299
4.80100	11290
4.80167	11281
4.80233	11272
4.80300	11263
4.80367	11255
4.80433	11246
4.80500	11237
4.80567	11229
4.80633	11220
4.80700	11212
4.80767	11204
4.80833	11196
4.80900	11188
4.80967	11180
4.81033	11172
4.81100	11164
4.81167	11156
4.81233	11148
4.81300	11141
4.81367	11133
4.81433	11126
4.81500	11118
4.81567	11111
4.81633	11103
4.81700	11096
4.81767	11089
4.81833	11082
4.81900	11074
4.81967	11067
4.82033	11060
4.82100	11053
4.82167	11046
4.82233	11039
4.82300	11032
4.82367	11025
4.82433	11018
4.82500	11012
4.82567	11005
4.82633	10998
4.82700	10992
4.82767	10985
4.82833	10979
4.82900	10972
4.82967	10966
4.83033	10960
4.83100	10953
4.83167	10947
4.83233	10941
4.83300	10935
4.83367	10928
4.83433	10922
4.83500	10916
4.83567	10909
4.83633	10903
4.83700	10897
4.83767	10891
4.83833	10884
4.83900	10878
4.83967	10872
4.84033	10866
4.84100	10860
4.84167	10853
4.84233	10847
4.84300	10841
4.84367	10835
4.84433	10829
4.84500	10823
4.84567	10817
4.84633	10811
4.84700	10805
4.84767	10799
4.84833	10793
4.84900	10787
4.84967	10781
4.85033	10774
4.85100	10768
4.85167	10762
4.85233	10756
4.85300	10750
4.85367	10744
4.85433	10737
4.85500	10731
4.85567	10725
4.85633	10719
4.85700	10712
4.85767	10706
4.85833	10700
4.85900	10693
4.85967	10687
4.86033	10681
4.86100	10674
4.86167	10668
4.86233	10662
4.86300	10655
4.86367	10649
4.86433	10642
4.86500	10636
4.86567	10629
4.86633	10623
4.86700	10617
4.86767	10610
4.86833	10604
4.86900	10598
4.86967	10591
4.87033	10585
4.87100	10579
4.87167	10573
4.87233	10567
4.87300	10561
4.87367	10555
4.87433	10549
4.87500	10543
4.87567	10537
4.87633	10531
4.87700	10525
4.87767	10519
4.87833	10514
4.87900	10508
4.87967	10502
4.88033	10497
4.88100	10491
4.88167	10485
4.88233	10480
4.88300	10474
4.88367	10469
4.88433	10463
4.88500	10458
4.88567	10452
4.88633	10447
4.88700	10442
4.88767	10436
4.88833	10431
4.88900	10426
4.88967	10420
4.89033	10415
4.89100	10410
4.89167	10404
4.89233	10399
4.89300	10394
4.89367	10388
4.89433	10383
4.89500	10377
4.89567	10372
4.89633	10367
4.89700	10361
4.89767	10356
4.89833	10350
4.89900	10345
4.89967	10339
4.90033	10334
4.90100	10328
4.90167	10323
4.90233	10317
4.90300	10312
4.90367	10307
4.90433	10301
4.90500	10296
4.90567	10291
4.90633	10285
4.90700	10280
4.90767	10275
4.90833	10270
4.90900	10264
4.90967	10259
4.91033	10254
4.91100	10249
4.91167	10244
4.91233	10238
4.91300	10233
4.91367	10228
4.91433	10223
4.91500	10218
4.91567	10212
4.91633	10207
4.91700	10202
4.91767	10197
4.91833	10191
4.91900	10186
4.91967	10181
4.92033	10176
4.92100	10171
4.92167	10166
4.92233	10161
4.92300	10156
4.92367	10151
4.92433	10146
4.92500	10141
4.92567	10136
4.92633	10131
4.92700	10126
4.92767	10121
4.92833	10117
4.92900	10112
4.92967	10107
4.93033	10102
4.93100	10097
4.93167	10092
4.93233	10087
4.93300	10083
4.93367	10078
4.93433	10073
4.93500	10068
4.93567	10064
4.93633	10059
4.93700	10055
4.93767	10050
4.93833	10046
4.93900	10041
4.93967	10037
4.94033	10033
4.94100	10028
4.94167	10024
4.94233	10019
4.94300	10015
4.94367	10011
4.94433	10007
4.94500	10002
4.94567	9998
4.94633	9994
4.94700	9990
4.94767	9986
4.94833	9982
4.94900	9978
4.94967	9974
4.95033	9970
4.95100	9966
4.95167	9962
4.95233	9958
4.95300	9954
4.95367	9950
4.95433	9945
4.95500	9941
4.95567	9937
4.95633	9933
4.95700	9929
4.95767	9925
4.95833	9921
4.95900	9917
4.95967	9913
4.96033	9909
4.96100	9905
4.96167	9901
4.96233	9897
4.96300	9893
4.96367	9890
4.96433	9886
4.96500	9882
4.96567	9878
4.96633	9874
4.96700	9871
4.96767	9867
4.96833	9863
4.96900	9859
4.96967	9856
4.97033	9852
4.97100	9848
4.97167	9844
4.97233	9840
4.97300	9837
4.97367	9833
4.97433	9829
4.97500	9825
4.97567	9822
4.97633	9818
4.97700	9814
4.97767	9810
4.97833	9807
4.97900	9803
4.97967	9799
4.98033	9795
4.98100	9792
4.98167	9788
4.98233	9784
4.98300	9780
4.98367	9776
4.98433	9772
4.98500	9768
4.98567	9764
4.98633	9760
4.98700	9756
4.98767	9752
4.98833	9748
4.98900	9744
4.98967	9740
4.99033	9736
4.99100	9731
4.99167	9727
4.99233	9723
4.99300	9719
4.99367	9715
4.99433	9711
4.99500	9707
4.99567	9702
4.99633	9698
4.99700	9694
4.99767	9690
4.99833	9686
4.99900	9682
4.99967	9678
5.00033	9674
5.00100	9669
5.00167	9665
5.00233	9661
5.00300	9657
5.00367	9653
5.00433	9649
5.00500	9645
5.00567	9641
5.00633	9637
5.00700	9633
5.00767	9629
5.00833	9625
5.00900	9621
5.00967	9617
5.01033	9614
5.01100	9610
5.01167	9606
5.01233	9602
5.01300	9599
5.01367	9595
5.01433	9591
5.01500	9587
5.01567	9584
5.01633	9580
5.01700	9577
5.01767	9573
5.01833	9569
5.01900	9566
5.01967	9562
5.02033	9559
5.02100	9555
5.02167	9551
5.02233	9548
5.02300	9544
5.02367	9540
5.02433	9537
5.02500	9533
5.02567	9530
5.02633	9526
5.02700	9522
5.02767	9519
5.02833	9515
5.02900	9512
5.02967	9508
5.03033	9504
5.03100	9501
5.03167	9497
5.03233	9493
5.03300	9490
5.03367	9486
5.03433	9482
5.03500	9479
5.03567	9475
5.03633	9471
5.03700	9467
5.03767	9464
5.03833	9460
5.03900	9456
5.03967	9452
5.04033	9448
5.04100	9445
5.04167	9441
5.04233	9437
5.04300	9433
5.04367	9428
5.04433	9424
5.04500	9420
5.04567	9416
5.04633	9412
5.04700	9407
5.04767	9403
5.04833	9399
5.04900	9395
5.04967	9390
5.05033	9386
5.05100	9382
5.05167	9378
5.05233	9374
5.05300	9370
5.05367	9366
5.05433	9362
5.05500	9357
5.05567	9353
5.05633	9349
5.05700	9345
5.05767	9341
5.05833	9337
5.05900	9333
5.05967	9329
5.06033	9325
5.06100	9321
5.06167	9317
5.06233	9313
5.06300	9309
5.06367	9305
5.06433	9301
5.06500	9297
5.06567	9293
5.06633	9289
5.06700	9285
5.06767	9281
5.06833	9277
5.06900	9273
5.06967	9269
5.07033	9265
5.07100	9261
5.07167	9257
5.07233	9254
5.07300	9250
5.07367	9246
5.07433	9242
5.07500	9239
5.07567	9235
5.07633	9231
5.07700	9228
5.07767	9224
5.07833	9221
5.07900	9218
5.07967	9215
5.08033	9212
5.08100	9208
5.08167	9205
5.08233	9203
5.08300	9200
5.08367	9197
5.08433	9194
5.08500	9192
5.08567	9189
5.08633	9187
5.08700	9185
5.08767	9182
5.08833	9180
5.08900	9179
5.08967	9177
5.09033	9175
5.09100	9174
5.09167	9172
5.09233	9171
5.09300	9170
5.09367	9169
5.09433	9168
5.09500	9167
5.09567	9166
5.09633	9166
5.09700	9165
5.09767	9165
5.09833	9165
5.09900	9165
5.09967	9165
5.10033	9165
5.10100	9166
5.10167	9166
5.10233	9167
5.10300	9167
5.10367	9168
5.10433	9170
5.10500	9171
5.10567	9172
5.10633	9174
5.10700	9176
5.10767	9178
5.10833	9180
5.10900	9183
5.10967	9186
5.11033	9190
5.11100	9193
5.11167	9197
5.11233	9202
5.11300	9206
5.11367	9211
5.11433	9217
5.11500	9223
5.11567	9229
5.11633	9236
5.11700	9243
5.11767	9250
5.11833	9258
5.11900	9266
5.11967	9275
5.12033	9284
5.12100	9294
5.12167	9304
5.12233	9315
5.12300	9326
5.12367	9338
5.12433	9350
5.12500	9363
5.12567	9376
5.12633	9391
5.12700	9405
5.12767	9421
5.12833	9437
5.12900	9454
5.12967	9471
5.13033	9490
5.13100	9509
5.13167	9529
5.13233	9550
5.13300	9572
5.13367	9595
5.13433	9618
5.13500	9643
5.13567	9669
5.13633	9695
5.13700	9723
5.13767	9752
5.13833	9781
5.13900	9812
5.13967	9844
5.14033	9877
5.14100	9912
5.14167	9947
5.14233	9984
5.14300	10021
5.14367	10060
5.14433	10101
5.14500	10142
5.14567	10185
5.14633	10229
5.14700	10275
5.14767	10322
5.14833	10370
5.14900	10420
5.14967	10471
5.15033	10524
5.15100	10578
5.15167	10634
5.15233	10691
5.15300	10750
5.15367	10811
5.15433	10873
5.15500	10937
5.15567	11002
5.15633	11070
5.15700	11139
5.15767	11210
5.15833	11283
5.15900	11357
5.15967	11434
5.16033	11512
5.16100	11593
5.16167	11675
5.16233	11759
5.16300	11845
5.16367	11933
5.16433	12023
5.16500	12115
5.16567	12208
5.16633	12304
5.16700	12401
5.16767	12500
5.16833	12601
5.16900	12704
5.16967	12809
5.17033	12915
5.17100	13023
5.17167	13133
5.17233	13244
5.17300	13357
5.17367	13471
5.17433	13587
5.17500	13704
5.17567	13822
5.17633	13942
5.17700	14064
5.17767	14187
5.17833	14311
5.17900	14436
5.17967	14563
5.18033	14691
5.18100	14821
5.18167	14951
5.18233	15084
5.18300	15217
5.18367	15352
5.18433	15489
5.18500	15626
5.18567	15766
5.18633	15906
5.18700	16048
5.18767	16191
5.18833	16335
5.18900	16480
5.18967	16627
5.19033	16775
5.19100	16923
5.19167	17073
5.19233	17224
5.19300	17375
5.19367	17527
5.19433	17679
5.19500	17832
5.19567	17986
5.19633	18140
5.19700	18294
5.19767	18449
5.19833	18604
5.19900	18759
5.19967	18914
5.20033	19069
5.20100	19224
5.20167	19379
5.20233	19533
5.20300	19687
5.20367	19841
5.20433	19994
5.20500	20146
5.20567	20298
5.20633	20449
5.20700	20599
5.20767	20747
5.20833	20895
5.20900	21042
5.20967	21187
5.21033	21330
5.21100	21472
5.21167	21613
5.21233	21752
5.21300	21889
5.21367	22024
5.21433	22158
5.21500	22289
5.21567	22419
5.21633	22546
5.21700	22672
5.21767	22795
5.21833	22916
5.21900	23036
5.21967	23153
5.22033	23267
5.22100	23380
5.22167	23489
5.22233	23597
5.22300	23702
5.22367	23805
5.22433	23904
5.22500	24002
5.22567	24096
5.22633	24188
5.22700	24277
5.22767	24363
5.22833	24446
5.22900	24527
5.22967	24604
5.23033	24678
5.23100	24749
5.23167	24816
5.23233	24881
5.23300	24943
5.23367	25001
5.23433	25056
5.23500	25108
5.23567	25157
5.23633	25203
5.23700	25245
5.23767	25284
5.23833	25321
5.23900	25354
5.23967	25383
5.24033	25410
5.24100	25433
5.24167	25454
5.24233	25471
5.24300	25484
5.24367	25495
5.24433	25502
5.24500	25506
5.24567	25507
5.24633	25505
5.24700	25500
5.24767	25491
5.24833	25479
5.24900	25465
5.24967	25447
5.25033	25426
5.25100	25403
5.25167	25377
5.25233	25347
5.25300	25316
5.25367	25281
5.25433	25244
5.25500	25204
5.25567	25161
5.25633	25117
5.25700	25069
5.25767	25019
5.25833	24967
5.25900	24913
5.25967	24856
5.26033	24797
5.26100	24736
5.26167	24673
5.26233	24608
5.26300	24541
5.26367	24472
5.26433	24401
5.26500	24329
5.26567	24254
5.26633	24177
5.26700	24099
5.26767	24019
5.26833	23937
5.26900	23854
5.26967	23769
5.27033	23683
5.27100	23595
5.27167	23506
5.27233	23416
5.27300	23324
5.27367	23231
5.27433	23137
5.27500	23042
5.27567	22946
5.27633	22849
5.27700	22751
5.27767	22652
5.27833	22553
5.27900	22452
5.27967	22352
5.28033	22251
5.28100	22149
5.28167	22047
5.28233	21944
5.28300	21841
5.28367	21738
5.28433	21634
5.28500	21531
5.28567	21427
5.28633	21323
5.28700	21220
5.28767	21116
5.28833	21012
5.28900	20909
5.28967	20805
5.29033	20702
5.29100	20599
5.29167	20496
5.29233	20394
5.29300	20291
5.29367	20189
5.29433	20088
5.29500	19987
5.29567	19886
5.29633	19785
5.29700	19686
5.29767	19586
5.29833	19487
5.29900	19389
5.29967	19291
5.30033	19193
5.30100	19096
5.30167	19000
5.30233	18904
5.30300	18809
5.30367	18715
5.30433	18621
5.30500	18528
5.30567	18435
5.30633	18343
5.30700	18252
5.30767	18162
5.30833	18073
5.30900	17984
5.30967	17896
5.31033	17808
5.31100	17722
5.31167	17636
5.31233	17551
5.31300	17467
5.31367	17384
5.31433	17301
5.31500	17220
5.31567	17139
5.31633	17059
5.31700	16979
5.31767	16901
5.31833	16823
5.31900	16746
5.31967	16670
5.32033	16595
5.32100	16521
5.32167	16447
5.32233	16374
5.32300	16302
5.32367	16231
5.32433	16160
5.32500	16090
5.32567	16021
5.32633	15953
5.32700	15886
5.32767	15819
5.32833	15753
5.32900	15688
5.32967	15624
5.33033	15560
5.33100	15497
5.33167	15434
5.33233	15372
5.33300	15311
5.33367	15251
5.33433	15191
5.33500	15132
5.33567	15073
5.33633	15015
5.33700	14958
5.33767	14901
5.33833	14845
5.33900	14790
5.33967	14735
5.34033	14681
5.34100	14628
5.34167	14575
5.34233	14523
5.34300	14471
5.34367	14420
5.34433	14370
5.34500	14320
5.34567	14271
5.34633	14222
5.34700	14174
5.34767	14126
5.34833	14079
5.34900	14033
5.34967	13987
5.35033	13941
5.35100	13896
5.35167	13852
5.35233	13808
5.35300	13764
5.35367	13721
5.35433	13679
5.35500	13637
5.35567	13596
5.35633	13555
5.35700	13514
5.35767	13474
5.35833	13434
5.35900	13395
5.35967	13356
5.36033	13318
5.36100	13280
5.36167	13243
5.36233	13206
5.36300	13169
5.36367	13133
5.36433	13098
5.36500	13062
5.36567	13027
5.36633	12993
5.36700	12959
5.36767	12925
5.36833	12892
5.36900	12859
5.36967	12826
5.37033	12794
5.37100	12762
5.37167	12731
5.37233	12700
5.37300	12669
5.37367	12638
5.37433	12608
5.37500	12578
5.37567	12549
5.37633	12520
5.37700	12491
5.37767	12463
5.37833	12435
5.37900	12407
5.37967	12380
5.38033	12352
5.38100	12325
5.38167	12299
5.38233	12272
5.38300	12246
5.38367	12220
5.38433	12194
5.38500	12169
5.38567	12143
5.38633	12118
5.38700	12093
5.38767	12069
5.38833	12045
5.38900	12021
5.38967	11997
5.39033	11973
5.39100	11950
5.39167	11927
5.39233	11904
5.39300	11882
5.39367	11860
5.39433	11838
5.39500	11816
5.39567	11794
5.39633	11773
5.39700	11752
5.39767	11731
5.39833	11711
5.39900	11691
5.39967	11671
5.40033	11651
5.40100	11631
5.40167	11612
5.40233	11593
5.40300	11574
5.40367	11555
5.40433	11537
5.40500	11518
5.40567	11500
5.40633	11482
5.40700	11465
5.40767	11447
5.40833	11429
5.40900	11412
5.40967	11395
5.41033	11378
5.41100	11361
5.41167	11344
5.41233	11328
5.41300	11311
5.41367	11295
5.41433	11278
5.41500	11262
5.41567	11246
5.41633	11230
5.41700	11214
5.41767	11199
5.41833	11183
5.41900	11168
5.41967	11152
5.42033	11137
5.42100	11122
5.42167	11107
5.42233	11092
5.42300	11078
5.42367	11063
5.42433	11048
5.42500	11034
5.42567	11020
5.42633	11005
5.42700	10991
5.42767	10977
5.42833	10963
5.42900	10949
5.42967	10935
5.43033	10922
5.43100	10908
5.43167	10894
5.43233	10881
5.43300	10867
5.43367	10854
5.43433	10841
5.43500	10828
5.43567	10815
5.43633	10802
5.43700	10789
5.43767	10777
5.43833	10764
5.43900	10751
5.43967	10739
5.44033	10727
5.44100	10714
5.44167	10702
5.44233	10690
5.44300	10678
5.44367	10666
5.44433	10654
5.44500	10642
5.44567	10630
5.44633	10618
5.44700	10606
5.44767	10594
5.44833	10582
5.44900	10570
5.44967	10558
5.45033	10547
5.45100	10535
5.45167	10523
5.45233	10511
5.45300	10500
5.45367	10488
5.45433	10477
5.45500	10465
5.45567	10453
5.45633	10442
5.45700	10430
5.45767	10419
5.45833	10407
5.45900	10396
5.45967	10384
5.46033	10373
5.46100	10362
5.46167	10350
5.46233	10339
5.46300	10328
5.46367	10317
5.46433	10306
5.46500	10294
5.46567	10283
5.46633	10272
5.46700	10261
5.46767	10251
5.46833	10240
5.46900	10229
5.46967	10219
5.47033	10208
5.47100	10198
5.47167	10187
5.47233	10177
5.47300	10167
5.47367	10157
5.47433	10147
5.47500	10137
5.47567	10127
5.47633	10117
5.47700	10107
5.47767	10097
5.47833	10088
5.47900	10078
5.47967	10068
5.48033	10059
5.48100	10049
5.48167	10040
5.48233	10031
5.48300	10021
5.48367	10012
5.48433	10003
5.48500	9994
5.48567	9985
5.48633	9976
5.48700	9967
5.48767	9958
5.48833	9949
5.48900	9940
5.48967	9931
5.49033	9922
5.49100	9914
5.49167	9905
5.49233	9896
5.49300	9888
5.49367	9879
5.49433	9871
5.49500	9862
5.49567	9853
5.49633	9845
5.49700	9837
5.49767	9828
5.49833	9820
5.49900	9811
5.49967	9803
5.50033	9795
5.50100	9787
5.50167	9778
5.50233	9770
5.50300	9762
5.50367	9754
5.50433	9746
5.50500	9738
5.50567	9730
5.50633	9722
5.50700	9715
5.50767	9707
5.50833	9699
5.50900	9691
5.50967	9684
5.51033	9677
5.51100	9669
5.51167	9662
5.51233	9655
5.51300	9648
5.51367	9640
5.51433	9633
5.51500	9626
5.51567	9619
5.51633	9612
5.51700	9605
5.51767	9598
5.51833	9591
5.51900	9584
5.51967	9577
5.52033	9570
5.52100	9564
5.52167	9557
5.52233	9550
5.52300	9543
5.52367	9536
5.52433	9529
5.52500	9522
5.52567	9515
5.52633	9509
5.52700	9502
5.52767	9495
5.52833	9488
5.52900	9481
5.52967	9474
5.53033	9468
5.53100	9461
5.53167	9454
5.53233	9447
5.53300	9440
5.53367	9434
5.53433	9427
5.53500	9420
5.53567	9413
5.53633	9407
5.53700	9400
5.53767	9394
5.53833	9387
5.53900	9381
5.53967	9374
5.54033	9368
5.54100	9362
5.54167	9355
5.54233	9349
5.54300	9343
5.54367	9337
5.54433	9331
5.54500	9325
5.54567	9319
5.54633	9313
5.54700	9307
5.54767	9301
5.54833	9295
5.54900	9290
5.54967	9284
5.55033	9279
5.55100	9273
5.55167	9268
5.55233	9262
5.55300	9257
5.55367	9252
5.55433	9247
5.55500	9241
5.55567	9236
5.55633	9231
5.55700	9226
5.55767	9221
5.55833	9215
5.55900	9210
5.55967	9205
5.56033	9200
5.56100	9195
5.56167	9190
5.56233	9185
5.56300	9181
5.56367	9176
5.56433	9171
5.56500	9166
5.56567	9162
5.56633	9157
5.56700	9152
5.56767	9148
5.56833	9143
5.56900	9139
5.56967	9134
5.57033	9130
5.57100	9125
5.57167	9121
5.57233	9116
5.57300	9112
5.57367	9107
5.57433	9103
5.57500	9098
5.57567	9094
5.57633	9090
5.57700	9085
5.57767	9081
5.57833	9077
5.57900	9072
5.57967	9068
5.58033	9064
5.58100	9059
5.58167	9055
5.58233	9050
5.58300	9046
5.58367	9042
5.58433	9037
5.58500	9033
5.58567	9029
5.58633	9024
5.58700	9020
5.58767	9015
5.58833	9011
5.58900	9007
5.58967	9003
5.59033	8998
5.59100	8994
5.59167	8990
5.59233	8986
5.59300	8982
5.59367	8978
5.59433	8974
5.59500	8969
5.59567	8965
5.59633	8961
5.59700	8957
5.59767	8953
5.59833	8949
5.59900	8945
5.59967	8941
5.60033	8937
5.60100	8933
5.60167	8929
5.60233	8925
5.60300	8921
5.60367	8917
5.60433	8913
5.60500	8909
5.60567	8905
5.60633	8901
5.60700	8897
5.60767	8894
5.60833	8890
5.60900	8886
5.60967	8882
5.61033	8878
5.61100	8875
5.61167	8871
5.61233	8867
5.61300	8864
5.61367	8860
5.61433	8856
5.61500	8853
5.61567	8849
5.61633	8846
5.61700	8842
5.61767	8839
5.61833	8835
5.61900	8832
5.61967	8829
5.62033	8825
5.62100	8822
5.62167	8819
5.62233	8815
5.62300	8812
5.62367	8809
5.62433	8806
5.62500	8803
5.62567	8799
5.62633	8796
5.62700	8793
5.62767	8790
5.62833	8787
5.62900	8784
5.62967	8781
5.63033	8778
5.63100	8775
5.63167	8772
5.63233	8769
5.63300	8765
5.63367	8762
5.63433	8759
5.63500	8756
5.63567	8753
5.63633	8750
5.63700	8746
5.63767	8743
5.63833	8740
5.63900	8737
5.63967	8734
5.64033	8730
5.64100	8727
5.64167	8724
5.64233	8721
5.64300	8718
5.64367	8715
5.64433	8711
5.64500	8708
5.64567	8705
5.64633	8702
5.64700	8699
5.64767	8696
5.64833	8693
5.64900	8690
5.64967	8686
5.65033	8683
5.65100	8680
5.65167	8677
5.65233	8674
5.65300	8671
5.65367	8667
5.65433	8664
5.65500	8661
5.65567	8658
5.65633	8654
5.65700	8651
5.65767	8648
5.65833	8645
5.65900	8642
5.65967	8639
5.66033	8636
5.66100	8633
5.66167	8630
5.66233	8627
5.66300	8624
5.66367	8621
5.66433	8618
5.66500	8615
5.66567	8612
5.66633	8610
5.66700	8607
5.66767	8604
5.66833	8601
5.66900	8598
5.66967	8595
5.67033	8592
5.67100	8589
5.67167	8586
5.67233	8584
5.67300	8581
5.67367	8578
5.67433	8575
5.67500	8572
5.67567	8569
5.67633	8566
5.67700	8563
5.67767	8561
5.67833	8558
5.67900	8555
5.67967	8552
5.68033	8550
5.68100	8547
5.68167	8544
5.68233	8542
5.68300	8539
5.68367	8537
5.68433	8534
5.68500	8531
5.68567	8529
5.68633	8526
5.68700	8524
5.68767	8521
5.68833	8519
5.68900	8516
5.68967	8513
5.69033	8511
5.69100	8508
5.69167	8506
5.69233	8504
5.69300	8501
5.69367	8499
5.69433	8497
5.69500	8494
5.69567	8492
5.69633	8490
5.69700	8488
5.69767	8486
5.69833	8483
5.69900	8481
5.69967	8480
5.70033	8478
5.70100	8476
5.70167	8474
5.70233	8472
5.70300	8470
5.70367	8468
5.70433	8466
5.70500	8464
5.70567	8463
5.70633	8461
5.70700	8459
5.70767	8457
5.70833	8456
5.70900	8454
5.70967	8452
5.71033	8450
5.71100	8449
5.71167	8447
5.71233	8446
5.71300	8444
5.71367	8443
5.71433	8441
5.71500	8440
5.71567	8438
5.71633	8437
5.71700	8436
5.71767	8434
5.71833	8433
5.71900	8432
5.71967	8431
5.72033	8430
5.72100	8428
5.72167	8427
5.72233	8426
5.72300	8425
5.72367	8424
5.72433	8424
5.72500	8423
5.72567	8422
5.72633	8421
5.72700	8421
5.72767	8420
5.72833	8420
5.72900	8419
5.72967	8419
5.73033	8418
5.73100	8418
5.73167	8418
5.73233	8418
5.73300	8417
5.73367	8417
5.73433	8417
5.73500	8417
5.73567	8417
5.73633	8417
5.73700	8417
5.73767	8417
5.73833	8418
5.73900	8418
5.73967	8418
5.74033	8419
5.74100	8419
5.74167	8419
5.74233	8420
5.74300	8420
5.74367	8421
5.74433	8421
5.74500	8422
5.74567	8423
5.74633	8423
5.74700	8424
5.74767	8425
5.74833	8425
5.74900	8426
5.74967	8427
5.75033	8428
5.75100	8429
5.75167	8430
5.75233	8430
5.75300	8432
5.75367	8433
5.75433	8434
5.75500	8435
5.75567	8436
5.75633	8437
5.75700	8438
5.75767	8440
5.75833	8441
5.75900	8442
5.75967	8443
5.76033	8445
5.76100	8446
5.76167	8448
5.76233	8449
5.76300	8451
5.76367	8452
5.76433	8454
5.76500	8455
5.76567	8457
5.76633	8459
5.76700	8460
5.76767	8462
5.76833	8464
5.76900	8466
5.76967	8467
5.77033	8469
5.77100	8471
5.77167	8473
5.77233	8475
5.77300	8477
5.77367	8479
5.77433	8482
5.77500	8484
5.77567	8486
5.77633	8488
5.77700	8491
5.77767	8493
5.77833	8496
5.77900	8498
5.77967	8501
5.78033	8504
5.78100	8506
5.78167	8509
5.78233	8512
5.78300	8515
5.78367	8518
5.78433	8521
5.78500	8524
5.78567	8527
5.78633	8530
5.78700	8533
5.78767	8537
5.78833	8540
5.78900	8543
5.78967	8546
5.79033	8550
5.79100	8553
5.79167	8556
5.79233	8560
5.79300	8563
5.79367	8567
5.79433	8570
5.79500	8573
5.79567	8577
5.79633	8580
5.79700	8584
5.79767	8588
5.79833	8591
5.79900	8595
5.79967	8599
5.80033	8603
5.80100	8606
5.80167	8610
5.80233	8614
5.80300	8618
5.80367	8622
5.80433	8626
5.80500	8630
5.80567	8634
5.80633	8638
5.80700	8642
5.80767	8646
5.80833	8650
5.80900	8654
5.80967	8658
5.81033	8662
5.81100	8667
5.81167	8671
5.81233	8675
5.81300	8679
5.81367	8683
5.81433	8687
5.81500	8691
5.81567	8695
5.81633	8699
5.81700	8703
5.81767	8707
5.81833	8711
5.81900	8715
5.81967	8719
5.82033	8723
5.82100	8728
5.82167	8732
5.82233	8736
5.82300	8740
5.82367	8744
5.82433	8748
5.82500	8752
5.82567	8755
5.82633	8759
5.82700	8763
5.82767	8767
5.82833	8771
5.82900	8774
5.82967	8778
5.83033	8782
5.83100	8785
5.83167	8789
5.83233	8792
5.83300	8796
5.83367	8799
5.83433	8802
5.83500	8806
5.83567	8809
5.83633	8812
5.83700	8815
5.83767	8818
5.83833	8821
5.83900	8823
5.83967	8826
5.84033	8829
5.84100	8832
5.84167	8834
5.84233	8837
5.84300	8839
5.84367	8841
5.84433	8844
5.84500	8846
5.84567	8848
5.84633	8850
5.84700	8853
5.84767	8855
5.84833	8857
5.84900	8859
5.84967	8860
5.85033	8862
5.85100	8864
5.85167	8865
5.85233	8867
5.85300	8868
5.85367	8870
5.85433	8871
5.85500	8872
5.85567	8873
5.85633	8874
5.85700	8875
5.85767	8876
5.85833	8876
5.85900	8877
5.85967	8878
5.86033	8878
5.86100	8878
5.86167	8879
5.86233	8879
5.86300	8879
5.86367	8879
5.86433	8879
5.86500	8879
5.86567	8879
5.86633	8879
5.86700	8878
5.86767	8878
5.86833	8877
5.86900	8877
5.86967	8876
5.87033	8875
5.87100	8875
5.87167	8874
5.87233	8873
5.87300	8872
5.87367	8871
5.87433	8871
5.87500	8870
5.87567	8869
5.87633	8868
5.87700	8867
5.87767	8865
5.87833	8864
5.87900	8863
5.87967	8861
5.88033	8860
5.88100	8858
5.88167	8857
5.88233	8855
5.88300	8853
5.88367	8852
5.88433	8850
5.88500	8848
5.88567	8846
5.88633	8844
5.88700	8842
5.88767	8840
5.88833	8837
5.88900	8835
5.88967	8833
5.89033	8830
5.89100	8828
5.89167	8826
5.89233	8823
5.89300	8821
5.89367	8818
5.89433	8816
5.89500	8813
5.89567	8810
5.89633	8807
5.89700	8805
5.89767	8802
5.89833	8799
5.89900	8796
5.89967	8793
5.90033	8790
5.90100	8787
5.90167	8784
5.90233	8781
5.90300	8777
5.90367	8774
5.90433	8771
5.90500	8768
5.90567	8764
5.90633	8761
5.90700	8758
5.90767	8754
5.90833	8751
5.90900	8747
5.90967	8744
5.91033	8740
5.91100	8737
5.91167	8733
5.91233	8729
5.91300	8726
5.91367	8722
5.91433	8718
5.91500	8715
5.91567	8711
5.91633	8707
5.91700	8703
5.91767	8699
5.91833	8695
5.91900	8692
5.91967	8688
5.92033	8684
5.92100	8680
5.92167	8676
5.92233	8671
5.92300	8667
5.92367	8663
5.92433	8659
5.92500	8655
5.92567	8651
5.92633	8647
5.92700	8643
5.92767	8639
5.92833	8635
5.92900	8631
5.92967	8627
5.93033	8623
5.93100	8619
5.93167	8615
5.93233	8611
5.93300	8607
5.93367	8602
5.93433	8598
5.93500	8594
5.93567	8590
5.93633	8586
5.93700	8582
5.93767	8578
5.93833	8574
5.93900	8570
5.93967	8566
5.94033	8562
5.94100	8558
5.94167	8554
5.94233	8550
5.94300	8546
5.94367	8542
5.94433	8539
5.94500	8535
5.94567	8531
5.94633	8527
5.94700	8524
5.94767	8520
5.94833	8516
5.94900	8513
5.94967	8509
5.95033	8505
5.95100	8502
5.95167	8498
5.95233	8494
5.95300	8491
5.95367	8487
5.95433	8484
5.95500	8480
5.95567	8477
5.95633	8474
5.95700	8470
5.95767	8467
5.95833	8464
5.95900	8460
5.95967	8457
5.96033	8454
5.96100	8451
5.96167	8448
5.96233	8445
5.96300	8442
5.96367	8438
5.96433	8435
5.96500	8432
5.96567	8429
5.96633	8426
5.96700	8423
5.96767	8420
5.96833	8418
5.96900	8415
5.96967	8412
5.97033	8409
5.97100	8406
5.97167	8403
5.97233	8400
5.97300	8397
5.97367	8394
5.97433	8391
5.97500	8388
5.97567	8385
5.97633	8382
5.97700	8379
5.97767	8376
5.97833	8373
5.97900	8370
5.97967	8367
5.98033	8364
5.98100	8361
5.98167	8359
5.98233	8356
5.98300	8353
5.98367	8350
5.98433	8347
5.98500	8344
5.98567	8341
5.98633	8338
5.98700	8336
5.98767	8333
5.98833	8330
5.98900	8328
5.98967	8325
5.99033	8323
5.99100	8320
5.99167	8317
5.99233	8315
5.99300	8312
5.99367	8310
5.99433	8308
5.99500	8305
5.99567	8303
5.99633	8301
5.99700	8298
5.99767	8296
5.99833	8294
5.99900	8292
5.99967	8289
6.00033	8287
6.00100	8285
6.00167	8283
6.00233	8280
6.00300	8278
6.00367	8276
6.00433	8274
6.00500	8271
6.00567	8269
6.00633	8267
6.00700	8265
6.00767	8263
6.00833	8261
6.00900	8258
6.00967	8256
6.01033	8254
6.01100	8252
6.01167	8250
6.01233	8248
6.01300	8246
6.01367	8243
6.01433	8241
6.01500	8239
6.01567	8237
6.01633	8235
6.01700	8232
6.01767	8230
6.01833	8228
6.01900	8226
6.01967	8224
6.02033	8222
6.02100	8220
6.02167	8218
6.02233	8216
6.02300	8214
6.02367	8212
6.02433	8210
6.02500	8208
6.02567	8206
6.02633	8204
6.02700	8202
6.02767	8200
6.02833	8198
6.02900	8196
6.02967	8194
6.03033	8192
6.03100	8190
6.03167	8188
6.03233	8186
6.03300	8184
6.03367	8182
6.03433	8180
6.03500	8178
6.03567	8176
6.03633	8173
6.03700	8171
6.03767	8169
6.03833	8167
6.03900	8165
6.03967	8163
6.04033	8161
6.04100	8159
6.04167	8158
6.04233	8156
6.04300	8154
6.04367	8152
6.04433	8150
6.04500	8148
6.04567	8146
6.04633	8144
6.04700	8142
6.04767	8140
6.04833	8138
6.04900	8137
6.04967	8135
6.05033	8133
6.05100	8131
6.05167	8129
6.05233	8127
6.05300	8125
6.05367	8124
6.05433	8122
6.05500	8120
6.05567	8118
6.05633	8116
6.05700	8115
6.05767	8113
6.05833	8111
6.05900	8109
6.05967	8108
6.06033	8106
6.06100	8104
6.06167	8103
6.06233	8101
6.06300	8099
6.06367	8098
6.06433	8096
6.06500	8094
6.06567	8093
6.06633	8091
6.06700	8090
6.06767	8088
6.06833	8086
6.06900	8085
6.06967	8083
6.07033	8082
6.07100	8080
6.07167	8079
6.07233	8077
6.07300	8075
6.07367	8074
6.07433	8073
6.07500	8071
6.07567	8070
6.07633	8068
6.07700	8067
6.07767	8065
6.07833	8064
6.07900	8062
6.07967	8060
6.08033	8059
6.08100	8057
6.08167	8056
6.08233	8054
6.08300	8052
6.08367	8051
6.08433	8049
6.08500	8047
6.08567	8046
6.08633	8044
6.08700	8043
6.08767	8041
6.08833	8039
6.08900	8038
6.08967	8036
6.09033	8035
6.09100	8033
6.09167	8032
6.09233	8030
6.09300	8029
6.09367	8027
6.09433	8026
6.09500	8024
6.09567	8023
6.09633	8021
6.09700	8020
6.09767	8018
6.09833	8017
6.09900	8016
6.09967	8014
6.10033	8013
6.10100	8011
6.10167	8010
6.10233	8008
6.10300	8007
6.10367	8005
6.10433	8004
6.10500	8003
6.10567	8001
6.10633	8000
6.10700	7998
6.10767	7997
6.10833	7996
6.10900	7994
6.10967	7993
6.11033	7992
6.11100	7991
6.11167	7989
6.11233	7988
6.11300	7987
6.11367	7986
6.11433	7985
6.11500	7984
6.11567	7983
6.11633	7982
6.11700	7981
6.11767	7980
6.11833	7979
6.11900	7978
6.11967	7977
6.12033	7976
6.12100	7975
6.12167	7975
6.12233	7974
6.12300	7973
6.12367	7973
6.12433	7972
6.12500	7971
6.12567	7970
6.12633	7970
6.12700	7969
6.12767	7968
6.12833	7968
6.12900	7967
6.12967	7966
6.13033	7966
6.13100	7965
6.13167	7965
6.13233	7964
6.13300	7963
6.13367	7963
6.13433	7962
6.13500	7962
6.13567	7962
6.13633	7961
6.13700	7961
6.13767	7960
6.13833	7960
6.13900	7959
6.13967	7959
6.14033	7958
6.14100	7958
6.14167	7957
6.14233	7957
6.14300	7956
6.14367	7956
6.14433	7956
6.14500	7955
6.14567	7955
6.14633	7954
6.14700	7954
6.14767	7953
6.14833	7953
6.14900	7952
6.14967	7952
6.15033	7951
6.15100	7951
6.15167	7950
6.15233	7950
6.15300	7949
6.15367	7949
6.15433	7948
6.15500	7948
6.15567	7947
6.15633	7946
6.15700	7946
6.15767	7945
6.15833	7945
6.15900	7944
6.15967	7943
6.16033	7943
6.16100	7942
6.16167	7941
6.16233	7941
6.16300	7940
6.16367	7940
6.16433	7939
6.16500	7938
6.16567	7938
6.16633	7937
6.16700	7937
6.16767	7936
6.16833	7936
6.16900	7935
6.16967	7934
6.17033	7934
6.17100	7933
6.17167	7933
6.17233	7932
6.17300	7931
6.17367	7931
6.17433	7930
6.17500	7930
6.17567	7929
6.17633	7928
6.17700	7928
6.17767	7927
6.17833	7927
6.17900	7926
6.17967	7925
6.18033	7925
6.18100	7924
6.18167	7924
6.18233	7924
6.18300	7923
6.18367	7923
6.18433	7923
6.18500	7922
6.18567	7922
6.18633	7922
6.18700	7922
6.18767	7922
6.18833	7922
6.18900	7922
6.18967	7922
6.19033	7922
6.19100	7922
6.19167	7922
6.19233	7922
6.19300	7922
6.19367	7923
6.19433	7923
6.19500	7924
6.19567	7924
6.19633	7925
6.19700	7925
6.19767	7926
6.19833	7927
6.19900	7928
6.19967	7929
6.20033	7930
6.20100	7931
6.20167	7933
6.20233	7934
6.20300	7935
6.20367	7937
6.20433	7938
6.20500	7940
6.20567	7941
6.20633	7943
6.20700	7945
6.20767	7947
6.20833	7948
6.20900	7950
6.20967	7952
6.21033	7954
6.21100	7956
6.21167	7958
6.21233	7960
6.21300	7963
6.21367	7965
6.21433	7967
6.21500	7969
6.21567	7972
6.21633	7974
6.21700	7976
6.21767	7979
6.21833	7982
6.21900	7984
6.21967	7987
6.22033	7990
6.22100	7992
6.22167	7995
6.22233	7998
6.22300	8001
6.22367	8004
6.22433	8007
6.22500	8010
6.22567	8013
6.22633	8016
6.22700	8019
6.22767	8022
6.22833	8025
6.22900	8028
6.22967	8032
6.23033	8035
6.23100	8038
6.23167	8042
6.23233	8045
6.23300	8049
6.23367	8052
6.23433	8056
6.23500	8059
6.23567	8063
6.23633	8067
6.23700	8070
6.23767	8074
6.23833	8078
6.23900	8082
6.23967	8085
6.24033	8089
6.24100	8093
6.24167	8097
6.24233	8100
6.24300	8104
6.24367	8108
6.24433	8111
6.24500	8115
6.24567	8119
6.24633	8122
6.24700	8126
6.24767	8130
6.24833	8133
6.24900	8137
6.24967	8140
6.25033	8144
6.25100	8147
6.25167	8151
6.25233	8154
6.25300	8158
6.25367	8161
6.25433	8165
6.25500	8168
6.25567	8171
6.25633	8175
6.25700	8178
6.25767	8181
6.25833	8184
6.25900	8187
6.25967	8190
6.26033	8194
6.26100	8197
6.26167	8200
6.26233	8202
6.26300	8205
6.26367	8208
6.26433	8211
6.26500	8214
6.26567	8216
6.26633	8219
6.26700	8222
6.26767	8224
6.26833	8227
6.26900	8229
6.26967	8232
6.27033	8234
6.27100	8236
6.27167	8238
6.27233	8240
6.27300	8243
6.27367	8245
6.27433	8247
6.27500	8248
6.27567	8250
6.27633	8252
6.27700	8254
6.27767	8255
6.27833	8257
6.27900	8258
6.27967	8259
6.28033	8261
6.28100	8262
6.28167	8263
6.28233	8264
6.28300	8265
6.28367	8266
6.28433	8267
6.28500	8268
6.28567	8268
6.28633	8269
6.28700	8269
6.28767	8270
6.28833	8270
6.28900	8270
6.28967	8270
6.29033	8270
6.29100	8270
6.29167	8270
6.29233	8269
6.29300	8269
6.29367	8268
6.29433	8268
6.29500	8267
6.29567	8266
6.29633	8265
6.29700	8264
6.29767	8263
6.29833	8262
6.29900	8261
6.29967	8259
6.30033	8258
6.30100	8256
6.30167	8255
6.30233	8253
6.30300	8252
6.30367	8250
6.30433	8248
6.30500	8246
6.30567	8244
6.30633	8242
6.30700	8240
6.30767	8237
6.30833	8235
6.30900	8232
6.30967	8230
6.31033	8227
6.31100	8224
6.31167	8221
6.31233	8218
6.31300	8215
6.31367	8212
6.31433	8209
6.31500	8206
6.31567	8203
6.31633	8199
6.31700	8196
6.31767	8192
6.31833	8189
6.31900	8185
6.31967	8182
6.32033	8178
6.32100	8174
6.32167	8171
6.32233	8167
6.32300	8163
6.32367	8159
6.32433	8155
6.32500	8152
6.32567	8148
6.32633	8144
6.32700	8140
6.32767	8136
6.32833	8132
6.32900	8128
6.32967	8123
6.33033	8119
6.33100	8115
6.33167	8111
6.33233	8107
6.33300	8103
6.33367	8098
6.33433	8094
6.33500	8090
6.33567	8085
6.33633	8081
6.33700	8077
6.33767	8072
6.33833	8068
6.33900	8064
6.33967	8059
6.34033	8055
6.34100	8051
6.34167	8046
6.34233	8042
6.34300	8037
6.34367	8033
6.34433	8028
6.34500	8024
6.34567	8019
6.34633	8015
6.34700	8010
6.34767	8005
6.34833	8001
6.34900	7996
6.34967	7992
6.35033	7987
6.35100	7983
6.35167	7978
6.35233	7974
6.35300	7969
6.35367	7965
6.35433	7960
6.35500	7956
6.35567	7952
6.35633	7947
6.35700	7943
6.35767	7938
6.35833	7934
6.35900	7930
6.35967	7925
6.36033	7921
6.36100	7917
6.36167	7913
6.36233	7909
6.36300	7904
6.36367	7900
6.36433	7896
6.36500	7892
6.36567	7887
6.36633	7883
6.36700	7879
6.36767	7875
6.36833	7870
6.36900	7866
6.36967	7862
6.37033	7858
6.37100	7854
6.37167	7850
6.37233	7846
6.37300	7841
6.37367	7837
6.37433	7833
6.37500	7829
6.37567	7825
6.37633	7821
6.37700	7817
6.37767	7813
6.37833	7809
6.37900	7805
6.37967	7801
6.38033	7797
6.38100	7793
6.38167	7789
6.38233	7785
6.38300	7781
6.38367	7778
6.38433	7774
6.38500	7770
6.38567	7766
6.38633	7763
6.38700	7759
6.38767	7755
6.38833	7751
6.38900	7748
6.38967	7744
6.39033	7740
6.39100	7737
6.39167	7733
6.39233	7730
6.39300	7726
6.39367	7723
6.39433	7719
6.39500	7716
6.39567	7712
6.39633	7709
6.39700	7705
6.39767	7702
6.39833	7698
6.39900	7696
6.39967	7692

