[Header]
Application Name	LabSolutions
Version	5.73
Data File Name	C:\LabSolutions\Data\Project1\stephen\2016-01-04\84.gcd
Output Date	1/5/2016
Output Time	4:51:45 PM

[Configuration]
Instrument Name	WEISSTA-PC-Instrument1
Instrument #	1
Line #	1
# of Detectors	1
Detector ID	DET#2
Detector Name	DFID1
# of Channels	1

[Chromatogram (Ch1)]
Interval(msec)	40
# of Points	9600
Start Time(min)	0.000
End Time(min)	6.399
R.Time (min)	Intensity
0.00000	34
0.00067	34
0.00133	34
0.00200	34
0.00267	34
0.00333	34
0.00400	34
0.00467	34
0.00533	34
0.00600	34
0.00667	34
0.00733	34
0.00800	33
0.00867	33
0.00933	32
0.01000	31
0.01067	29
0.01133	28
0.01200	26
0.01267	23
0.01333	21
0.01400	18
0.01467	15
0.01533	11
0.01600	7
0.01667	3
0.01733	-1
0.01800	-5
0.01867	-9
0.01933	-14
0.02000	-19
0.02067	-23
0.02133	-28
0.02200	-32
0.02267	-37
0.02333	-42
0.02400	-46
0.02467	-50
0.02533	-54
0.02600	-59
0.02667	-63
0.02733	-66
0.02800	-70
0.02867	-73
0.02933	-77
0.03000	-80
0.03067	-82
0.03133	-85
0.03200	-88
0.03267	-90
0.03333	-92
0.03400	-94
0.03467	-96
0.03533	-98
0.03600	-99
0.03667	-101
0.03733	-102
0.03800	-103
0.03867	-104
0.03933	-105
0.04000	-106
0.04067	-107
0.04133	-107
0.04200	-108
0.04267	-108
0.04333	-108
0.04400	-109
0.04467	-109
0.04533	-109
0.04600	-109
0.04667	-109
0.04733	-109
0.04800	-109
0.04867	-109
0.04933	-109
0.05000	-109
0.05067	-109
0.05133	-109
0.05200	-109
0.05267	-109
0.05333	-109
0.05400	-108
0.05467	-108
0.05533	-108
0.05600	-108
0.05667	-108
0.05733	-108
0.05800	-108
0.05867	-108
0.05933	-108
0.06000	-107
0.06067	-107
0.06133	-107
0.06200	-107
0.06267	-107
0.06333	-107
0.06400	-107
0.06467	-107
0.06533	-107
0.06600	-107
0.06667	-107
0.06733	-107
0.06800	-107
0.06867	-107
0.06933	-107
0.07000	-107
0.07067	-107
0.07133	-107
0.07200	-107
0.07267	-107
0.07333	-107
0.07400	-107
0.07467	-107
0.07533	-107
0.07600	-107
0.07667	-107
0.07733	-107
0.07800	-107
0.07867	-108
0.07933	-108
0.08000	-108
0.08067	-108
0.08133	-108
0.08200	-108
0.08267	-108
0.08333	-108
0.08400	-108
0.08467	-107
0.08533	-101
0.08600	-89
0.08667	-67
0.08733	-31
0.08800	19
0.08867	86
0.08933	185
0.09000	322
0.09067	497
0.09133	730
0.09200	1020
0.09267	1378
0.09333	1804
0.09400	2316
0.09467	2937
0.09533	3660
0.09600	4501
0.09667	5448
0.09733	6543
0.09800	7771
0.09867	9166
0.09933	10685
0.10000	12321
0.10067	14044
0.10133	15868
0.10200	17815
0.10267	19822
0.10333	21810
0.10400	23858
0.10467	26052
0.10533	28279
0.10600	30456
0.10667	32603
0.10733	34765
0.10800	36955
0.10867	39149
0.10933	41283
0.11000	43335
0.11067	45345
0.11133	47362
0.11200	49344
0.11267	51302
0.11333	53226
0.11400	55064
0.11467	56838
0.11533	58620
0.11600	60315
0.11667	61872
0.11733	63333
0.11800	64712
0.11867	65999
0.11933	67246
0.12000	68450
0.12067	69552
0.12133	70533
0.12200	71401
0.12267	72191
0.12333	72923
0.12400	73558
0.12467	74078
0.12533	74500
0.12600	74844
0.12667	75127
0.12733	75338
0.12800	75462
0.12867	75550
0.12933	75576
0.13000	75528
0.13067	75444
0.13133	75514
0.13200	76459
0.13267	80313
0.13333	91892
0.13400	120971
0.13467	185527
0.13533	314744
0.13600	547296
0.13667	925373
0.13733	1489830
0.13800	2276165
0.13867	3312180
0.13933	4616760
0.14000	6200858
0.14067	8068558
0.14133	10219909
0.14200	12652251
0.14267	15360707
0.14333	18334568
0.14400	21554413
0.14467	25006091
0.14533	28698135
0.14600	32641547
0.14667	36834884
0.14733	41264497
0.14800	45910562
0.14867	50748888
0.14933	55752736
0.15000	60895509
0.15067	66152572
0.15133	71501850
0.15200	76923364
0.15267	82399446
0.15333	87913708
0.15400	93450680
0.15467	98996240
0.15533	104537029
0.15600	110060780
0.15667	115556547
0.15733	121014161
0.15800	126423655
0.15867	131776344
0.15933	137064134
0.16000	142279456
0.16067	147414322
0.16133	152461325
0.16200	157413286
0.16267	162263343
0.16333	167004582
0.16400	171630868
0.16467	176136582
0.16533	180516590
0.16600	184765827
0.16667	188879190
0.16733	192851618
0.16800	196678282
0.16867	200354571
0.16933	203876069
0.17000	207238357
0.17067	210437024
0.17133	213467803
0.17200	216325481
0.17267	219005388
0.17333	221503098
0.17400	223815154
0.17467	225938578
0.17533	227871648
0.17600	229613199
0.17667	231163170
0.17733	232522034
0.17800	233691292
0.17867	234672889
0.17933	235469502
0.18000	236084253
0.18067	236520736
0.18133	236782412
0.18200	236873172
0.18267	236797202
0.18333	236558946
0.18400	236163025
0.18467	235614113
0.18533	234917065
0.18600	234076868
0.18667	233098673
0.18733	231987631
0.18800	230749087
0.18867	229388274
0.18933	227910617
0.19000	226321451
0.19067	224626307
0.19133	222830415
0.19200	220939053
0.19267	218957423
0.19333	216890828
0.19400	214744511
0.19467	212523763
0.19533	210233918
0.19600	207880395
0.19667	205468558
0.19733	203003664
0.19800	200490732
0.19867	197934626
0.19933	195340268
0.20000	192712827
0.20067	190057445
0.20133	187378630
0.20200	184679989
0.20267	181964274
0.20333	179233899
0.20400	176491020
0.20467	173737766
0.20533	170976346
0.20600	168209109
0.20667	165438421
0.20733	162666743
0.20800	159896504
0.20867	157130154
0.20933	154370074
0.21000	151618602
0.21067	148877991
0.21133	146150409
0.21200	143437911
0.21267	140742464
0.21333	138065928
0.21400	135410057
0.21467	132776484
0.21533	130166718
0.21600	127582152
0.21667	125024074
0.21733	122493678
0.21800	119992055
0.21867	117520197
0.21933	115078991
0.22000	112669241
0.22067	110291661
0.22133	107946884
0.22200	105635458
0.22267	103357871
0.22333	101114529
0.22400	98905767
0.22467	96731848
0.22533	94592978
0.22600	92489307
0.22667	90420938
0.22733	88387904
0.22800	86390195
0.22867	84427755
0.22933	82500486
0.23000	80608253
0.23067	78750894
0.23133	76928216
0.23200	75139985
0.23267	73385944
0.23333	71665800
0.23400	69979244
0.23467	68325944
0.23533	66705556
0.23600	65117719
0.23667	63562058
0.23733	62038180
0.23800	60545683
0.23867	59084145
0.23933	57653147
0.24000	56252257
0.24067	54881039
0.24133	53539055
0.24200	52225860
0.24267	50941007
0.24333	49684045
0.24400	48454521
0.24467	47251979
0.24533	46075968
0.24600	44926036
0.24667	43801733
0.24733	42702610
0.24800	41628221
0.24867	40578123
0.24933	39551878
0.25000	38549050
0.25067	37569209
0.25133	36611926
0.25200	35676778
0.25267	34763341
0.25333	33871205
0.25400	32999956
0.25467	32149191
0.25533	31318510
0.25600	30507520
0.25667	29715835
0.25733	28943072
0.25800	28188854
0.25867	27452809
0.25933	26734573
0.26000	26033783
0.26067	25350083
0.26133	24683120
0.26200	24032548
0.26267	23398025
0.26333	22779216
0.26400	22175788
0.26467	21587417
0.26533	21013781
0.26600	20454565
0.26667	19909456
0.26733	19378148
0.26800	18860340
0.26867	18355734
0.26933	17864039
0.27000	17384970
0.27067	16918243
0.27133	16463582
0.27200	16020714
0.27267	15589374
0.27333	15169298
0.27400	14760230
0.27467	14361918
0.27533	13974116
0.27600	13596581
0.27667	13229077
0.27733	12871369
0.27800	12523230
0.27867	12184436
0.27933	11854770
0.28000	11534016
0.28067	11221964
0.28133	10918411
0.28200	10623156
0.28267	10336004
0.28333	10056767
0.28400	9785260
0.28467	9521303
0.28533	9264724
0.28600	9015354
0.28667	8773030
0.28733	8537592
0.28800	8308887
0.28867	8086765
0.28933	7871081
0.29000	7661697
0.29067	7458475
0.29133	7261288
0.29200	7070012
0.29267	6884529
0.29333	6704729
0.29400	6530507
0.29467	6361768
0.29533	6198425
0.29600	6040406
0.29667	5887642
0.29733	5740078
0.29800	5597659
0.29867	5460338
0.29933	5328065
0.30000	5200792
0.30067	5078463
0.30133	4961015
0.30200	4848373
0.30267	4740451
0.30333	4637151
0.30400	4538368
0.30467	4443984
0.30533	4353872
0.30600	4267896
0.30667	4185916
0.30733	4107792
0.30800	4033383
0.30867	3962551
0.30933	3895153
0.31000	3831048
0.31067	3770095
0.31133	3712154
0.31200	3657084
0.31267	3604748
0.31333	3555010
0.31400	3507734
0.31467	3462792
0.31533	3420057
0.31600	3379408
0.31667	3340731
0.31733	3303917
0.31800	3268868
0.31867	3235489
0.31933	3203688
0.32000	3173380
0.32067	3144488
0.32133	3116938
0.32200	3090666
0.32267	3065607
0.32333	3041693
0.32400	3018855
0.32467	2997020
0.32533	2976115
0.32600	2956062
0.32667	2936786
0.32733	2918211
0.32800	2900264
0.32867	2882874
0.32933	2865970
0.33000	2849481
0.33067	2833329
0.33133	2817432
0.33200	2801701
0.33267	2786044
0.33333	2770366
0.33400	2754568
0.33467	2738555
0.33533	2722234
0.33600	2705511
0.33667	2688299
0.33733	2670516
0.33800	2652085
0.33867	2632943
0.33933	2613030
0.34000	2592301
0.34067	2570716
0.34133	2548254
0.34200	2524900
0.34267	2500657
0.34333	2475537
0.34400	2449565
0.34467	2422775
0.34533	2395207
0.34600	2366909
0.34667	2337934
0.34733	2308336
0.34800	2278174
0.34867	2247507
0.34933	2216393
0.35000	2184890
0.35067	2153057
0.35133	2120949
0.35200	2088619
0.35267	2056119
0.35333	2023498
0.35400	1990803
0.35467	1958078
0.35533	1925365
0.35600	1892704
0.35667	1860131
0.35733	1827682
0.35800	1795389
0.35867	1763281
0.35933	1731387
0.36000	1699731
0.36067	1668338
0.36133	1637228
0.36200	1606422
0.36267	1575937
0.36333	1545789
0.36400	1515993
0.36467	1486562
0.36533	1457508
0.36600	1428841
0.36667	1400570
0.36733	1372703
0.36800	1345247
0.36867	1318208
0.36933	1291591
0.37000	1265400
0.37067	1239641
0.37133	1214315
0.37200	1189426
0.37267	1164976
0.37333	1140964
0.37400	1117390
0.37467	1094254
0.37533	1071554
0.37600	1049288
0.37667	1027454
0.37733	1006048
0.37800	985068
0.37867	964510
0.37933	944370
0.38000	924643
0.38067	905326
0.38133	886413
0.38200	867900
0.38267	849783
0.38333	832055
0.38400	814713
0.38467	797750
0.38533	781160
0.38600	764937
0.38667	749076
0.38733	733573
0.38800	718423
0.38867	703625
0.38933	689173
0.39000	675064
0.39067	661296
0.39133	647864
0.39200	634765
0.39267	621996
0.39333	609553
0.39400	597434
0.39467	585634
0.39533	574153
0.39600	562986
0.39667	552133
0.39733	541591
0.39800	531360
0.39867	521438
0.39933	511821
0.40000	502503
0.40067	493478
0.40133	484735
0.40200	476265
0.40267	468059
0.40333	460108
0.40400	452401
0.40467	444930
0.40533	437686
0.40600	430659
0.40667	423841
0.40733	417225
0.40800	410802
0.40867	404566
0.40933	398510
0.41000	392627
0.41067	386911
0.41133	381357
0.41200	375958
0.41267	370710
0.41333	365606
0.41400	360643
0.41467	355815
0.41533	351119
0.41600	346548
0.41667	342100
0.41733	337771
0.41800	333555
0.41867	329451
0.41933	325454
0.42000	321561
0.42067	317767
0.42133	314070
0.42200	310467
0.42267	306954
0.42333	303529
0.42400	300187
0.42467	296926
0.42533	293743
0.42600	290635
0.42667	287601
0.42733	284637
0.42800	281741
0.42867	278910
0.42933	276144
0.43000	273439
0.43067	270792
0.43133	268203
0.43200	265668
0.43267	263186
0.43333	260754
0.43400	258371
0.43467	256035
0.43533	253744
0.43600	251497
0.43667	249291
0.43733	247127
0.43800	245000
0.43867	242912
0.43933	240859
0.44000	238841
0.44067	236857
0.44133	234906
0.44200	232985
0.44267	231095
0.44333	229234
0.44400	227401
0.44467	225595
0.44533	223816
0.44600	222062
0.44667	220333
0.44733	218628
0.44800	216946
0.44867	215287
0.44933	213649
0.45000	212032
0.45067	210436
0.45133	208860
0.45200	207303
0.45267	205765
0.45333	204246
0.45400	202744
0.45467	201259
0.45533	199792
0.45600	198341
0.45667	196906
0.45733	195487
0.45800	194084
0.45867	192695
0.45933	191322
0.46000	189964
0.46067	188620
0.46133	187291
0.46200	185976
0.46267	184675
0.46333	183388
0.46400	182115
0.46467	180856
0.46533	179611
0.46600	178379
0.46667	177161
0.46733	175956
0.46800	174765
0.46867	173587
0.46933	172422
0.47000	171270
0.47067	170130
0.47133	169003
0.47200	167889
0.47267	166786
0.47333	165694
0.47400	164615
0.47467	163546
0.47533	162489
0.47600	161442
0.47667	160406
0.47733	159380
0.47800	158364
0.47867	157357
0.47933	156361
0.48000	155374
0.48067	154397
0.48133	153428
0.48200	152469
0.48267	151518
0.48333	150575
0.48400	149640
0.48467	148714
0.48533	147796
0.48600	146885
0.48667	145982
0.48733	145087
0.48800	144200
0.48867	143319
0.48933	142446
0.49000	141580
0.49067	140720
0.49133	139868
0.49200	139022
0.49267	138183
0.49333	137351
0.49400	136525
0.49467	135706
0.49533	134893
0.49600	134085
0.49667	133285
0.49733	132490
0.49800	131701
0.49867	130918
0.49933	130141
0.50000	129369
0.50067	128603
0.50133	127843
0.50200	127088
0.50267	126339
0.50333	125596
0.50400	124858
0.50467	124125
0.50533	123397
0.50600	122675
0.50667	121958
0.50733	121246
0.50800	120540
0.50867	119839
0.50933	119143
0.51000	118452
0.51067	117767
0.51133	117087
0.51200	116412
0.51267	115743
0.51333	115079
0.51400	114420
0.51467	113766
0.51533	113118
0.51600	112475
0.51667	111837
0.51733	111204
0.51800	110576
0.51867	109953
0.51933	109335
0.52000	108721
0.52067	108112
0.52133	107508
0.52200	106908
0.52267	106312
0.52333	105720
0.52400	105133
0.52467	104550
0.52533	103971
0.52600	103396
0.52667	102825
0.52733	102259
0.52800	101696
0.52867	101137
0.52933	100582
0.53000	100032
0.53067	99486
0.53133	98943
0.53200	98405
0.53267	97871
0.53333	97341
0.53400	96815
0.53467	96293
0.53533	95775
0.53600	95261
0.53667	94751
0.53733	94245
0.53800	93743
0.53867	93245
0.53933	92751
0.54000	92261
0.54067	91774
0.54133	91291
0.54200	90812
0.54267	90337
0.54333	89865
0.54400	89397
0.54467	88932
0.54533	88471
0.54600	88013
0.54667	87559
0.54733	87109
0.54800	86662
0.54867	86218
0.54933	85778
0.55000	85341
0.55067	84907
0.55133	84477
0.55200	84050
0.55267	83626
0.55333	83206
0.55400	82789
0.55467	82375
0.55533	81965
0.55600	81557
0.55667	81153
0.55733	80751
0.55800	80353
0.55867	79958
0.55933	79566
0.56000	79178
0.56067	78792
0.56133	78410
0.56200	78030
0.56267	77654
0.56333	77282
0.56400	76912
0.56467	76546
0.56533	76182
0.56600	75823
0.56667	75466
0.56733	75113
0.56800	74764
0.56867	74417
0.56933	74075
0.57000	73736
0.57067	73400
0.57133	73068
0.57200	72739
0.57267	72413
0.57333	72091
0.57400	71773
0.57467	71457
0.57533	71145
0.57600	70836
0.57667	70530
0.57733	70227
0.57800	69926
0.57867	69629
0.57933	69334
0.58000	69042
0.58067	68753
0.58133	68466
0.58200	68181
0.58267	67898
0.58333	67618
0.58400	67339
0.58467	67063
0.58533	66788
0.58600	66516
0.58667	66246
0.58733	65977
0.58800	65710
0.58867	65445
0.58933	65181
0.59000	64919
0.59067	64659
0.59133	64400
0.59200	64143
0.59267	63888
0.59333	63634
0.59400	63381
0.59467	63130
0.59533	62880
0.59600	62632
0.59667	62386
0.59733	62140
0.59800	61897
0.59867	61654
0.59933	61413
0.60000	61174
0.60067	60936
0.60133	60700
0.60200	60465
0.60267	60232
0.60333	60000
0.60400	59770
0.60467	59542
0.60533	59315
0.60600	59089
0.60667	58866
0.60733	58644
0.60800	58424
0.60867	58205
0.60933	57989
0.61000	57774
0.61067	57561
0.61133	57350
0.61200	57141
0.61267	56934
0.61333	56729
0.61400	56525
0.61467	56324
0.61533	56126
0.61600	55929
0.61667	55736
0.61733	55545
0.61800	55358
0.61867	55175
0.61933	54997
0.62000	54824
0.62067	54658
0.62133	54499
0.62200	54349
0.62267	54209
0.62333	54079
0.62400	53962
0.62467	53859
0.62533	53772
0.62600	53700
0.62667	53646
0.62733	53610
0.62800	53593
0.62867	53594
0.62933	53614
0.63000	53652
0.63067	53708
0.63133	53779
0.63200	53866
0.63267	53965
0.63333	54074
0.63400	54193
0.63467	54317
0.63533	54445
0.63600	54575
0.63667	54704
0.63733	54829
0.63800	54950
0.63867	55063
0.63933	55168
0.64000	55262
0.64067	55344
0.64133	55414
0.64200	55470
0.64267	55512
0.64333	55540
0.64400	55553
0.64467	55551
0.64533	55535
0.64600	55504
0.64667	55459
0.64733	55401
0.64800	55330
0.64867	55246
0.64933	55150
0.65000	55043
0.65067	54925
0.65133	54798
0.65200	54661
0.65267	54515
0.65333	54361
0.65400	54199
0.65467	54031
0.65533	53857
0.65600	53677
0.65667	53492
0.65733	53302
0.65800	53109
0.65867	52911
0.65933	52711
0.66000	52508
0.66067	52302
0.66133	52094
0.66200	51884
0.66267	51672
0.66333	51459
0.66400	51245
0.66467	51030
0.66533	50814
0.66600	50598
0.66667	50381
0.66733	50163
0.66800	49946
0.66867	49728
0.66933	49510
0.67000	49292
0.67067	49074
0.67133	48857
0.67200	48640
0.67267	48423
0.67333	48207
0.67400	47992
0.67467	47777
0.67533	47563
0.67600	47350
0.67667	47138
0.67733	46927
0.67800	46717
0.67867	46509
0.67933	46302
0.68000	46096
0.68067	45893
0.68133	45691
0.68200	45491
0.68267	45293
0.68333	45097
0.68400	44904
0.68467	44713
0.68533	44526
0.68600	44341
0.68667	44160
0.68733	43982
0.68800	43808
0.68867	43639
0.68933	43475
0.69000	43315
0.69067	43162
0.69133	43014
0.69200	42874
0.69267	42742
0.69333	42618
0.69400	42505
0.69467	42402
0.69533	42311
0.69600	42235
0.69667	42174
0.69733	42131
0.69800	42107
0.69867	42104
0.69933	42123
0.70000	42166
0.70067	42234
0.70133	42327
0.70200	42448
0.70267	42595
0.70333	42769
0.70400	42970
0.70467	43196
0.70533	43445
0.70600	43716
0.70667	44005
0.70733	44310
0.70800	44626
0.70867	44952
0.70933	45282
0.71000	45614
0.71067	45942
0.71133	46265
0.71200	46578
0.71267	46879
0.71333	47164
0.71400	47432
0.71467	47679
0.71533	47906
0.71600	48111
0.71667	48292
0.71733	48449
0.71800	48582
0.71867	48691
0.71933	48776
0.72000	48837
0.72067	48876
0.72133	48893
0.72200	48889
0.72267	48865
0.72333	48822
0.72400	48761
0.72467	48682
0.72533	48588
0.72600	48478
0.72667	48354
0.72733	48217
0.72800	48068
0.72867	47908
0.72933	47737
0.73000	47556
0.73067	47367
0.73133	47169
0.73200	46964
0.73267	46753
0.73333	46535
0.73400	46312
0.73467	46084
0.73533	45851
0.73600	45615
0.73667	45376
0.73733	45133
0.73800	44889
0.73867	44642
0.73933	44394
0.74000	44144
0.74067	43894
0.74133	43642
0.74200	43391
0.74267	43140
0.74333	42889
0.74400	42638
0.74467	42388
0.74533	42139
0.74600	41891
0.74667	41644
0.74733	41399
0.74800	41156
0.74867	40914
0.74933	40674
0.75000	40437
0.75067	40201
0.75133	39968
0.75200	39737
0.75267	39508
0.75333	39282
0.75400	39058
0.75467	38837
0.75533	38618
0.75600	38403
0.75667	38189
0.75733	37979
0.75800	37771
0.75867	37566
0.75933	37364
0.76000	37165
0.76067	36968
0.76133	36774
0.76200	36583
0.76267	36394
0.76333	36209
0.76400	36026
0.76467	35846
0.76533	35669
0.76600	35494
0.76667	35322
0.76733	35153
0.76800	34987
0.76867	34824
0.76933	34663
0.77000	34505
0.77067	34349
0.77133	34196
0.77200	34046
0.77267	33898
0.77333	33753
0.77400	33611
0.77467	33471
0.77533	33333
0.77600	33198
0.77667	33065
0.77733	32935
0.77800	32806
0.77867	32680
0.77933	32557
0.78000	32435
0.78067	32316
0.78133	32198
0.78200	32083
0.78267	31969
0.78333	31858
0.78400	31749
0.78467	31641
0.78533	31535
0.78600	31431
0.78667	31329
0.78733	31229
0.78800	31130
0.78867	31032
0.78933	30937
0.79000	30843
0.79067	30750
0.79133	30659
0.79200	30569
0.79267	30481
0.79333	30394
0.79400	30309
0.79467	30225
0.79533	30142
0.79600	30060
0.79667	29979
0.79733	29900
0.79800	29822
0.79867	29745
0.79933	29669
0.80000	29594
0.80067	29521
0.80133	29448
0.80200	29377
0.80267	29306
0.80333	29237
0.80400	29168
0.80467	29100
0.80533	29033
0.80600	28967
0.80667	28902
0.80733	28838
0.80800	28774
0.80867	28711
0.80933	28649
0.81000	28587
0.81067	28526
0.81133	28465
0.81200	28406
0.81267	28346
0.81333	28288
0.81400	28229
0.81467	28172
0.81533	28114
0.81600	28057
0.81667	28001
0.81733	27945
0.81800	27890
0.81867	27835
0.81933	27780
0.82000	27726
0.82067	27673
0.82133	27619
0.82200	27566
0.82267	27514
0.82333	27462
0.82400	27410
0.82467	27359
0.82533	27308
0.82600	27258
0.82667	27208
0.82733	27158
0.82800	27109
0.82867	27060
0.82933	27011
0.83000	26963
0.83067	26915
0.83133	26868
0.83200	26820
0.83267	26774
0.83333	26727
0.83400	26681
0.83467	26635
0.83533	26590
0.83600	26545
0.83667	26500
0.83733	26456
0.83800	26412
0.83867	26368
0.83933	26325
0.84000	26282
0.84067	26239
0.84133	26196
0.84200	26154
0.84267	26112
0.84333	26070
0.84400	26029
0.84467	25988
0.84533	25947
0.84600	25906
0.84667	25866
0.84733	25826
0.84800	25786
0.84867	25747
0.84933	25708
0.85000	25669
0.85067	25630
0.85133	25591
0.85200	25553
0.85267	25515
0.85333	25477
0.85400	25440
0.85467	25402
0.85533	25365
0.85600	25329
0.85667	25292
0.85733	25256
0.85800	25220
0.85867	25184
0.85933	25148
0.86000	25113
0.86067	25077
0.86133	25042
0.86200	25008
0.86267	24973
0.86333	24939
0.86400	24905
0.86467	24871
0.86533	24837
0.86600	24803
0.86667	24770
0.86733	24736
0.86800	24703
0.86867	24670
0.86933	24637
0.87000	24604
0.87067	24572
0.87133	24539
0.87200	24507
0.87267	24475
0.87333	24443
0.87400	24411
0.87467	24379
0.87533	24347
0.87600	24316
0.87667	24284
0.87733	24253
0.87800	24222
0.87867	24191
0.87933	24160
0.88000	24129
0.88067	24098
0.88133	24068
0.88200	24037
0.88267	24007
0.88333	23977
0.88400	23947
0.88467	23917
0.88533	23887
0.88600	23858
0.88667	23828
0.88733	23799
0.88800	23770
0.88867	23741
0.88933	23712
0.89000	23684
0.89067	23655
0.89133	23627
0.89200	23599
0.89267	23571
0.89333	23543
0.89400	23516
0.89467	23488
0.89533	23461
0.89600	23435
0.89667	23408
0.89733	23382
0.89800	23356
0.89867	23330
0.89933	23305
0.90000	23281
0.90067	23256
0.90133	23232
0.90200	23209
0.90267	23186
0.90333	23163
0.90400	23141
0.90467	23119
0.90533	23098
0.90600	23078
0.90667	23057
0.90733	23038
0.90800	23019
0.90867	23000
0.90933	22982
0.91000	22964
0.91067	22947
0.91133	22930
0.91200	22914
0.91267	22898
0.91333	22883
0.91400	22867
0.91467	22853
0.91533	22838
0.91600	22823
0.91667	22809
0.91733	22795
0.91800	22781
0.91867	22767
0.91933	22753
0.92000	22739
0.92067	22725
0.92133	22711
0.92200	22698
0.92267	22684
0.92333	22670
0.92400	22656
0.92467	22642
0.92533	22627
0.92600	22613
0.92667	22599
0.92733	22585
0.92800	22570
0.92867	22556
0.92933	22541
0.93000	22526
0.93067	22511
0.93133	22497
0.93200	22481
0.93267	22466
0.93333	22451
0.93400	22436
0.93467	22420
0.93533	22405
0.93600	22389
0.93667	22373
0.93733	22357
0.93800	22341
0.93867	22325
0.93933	22308
0.94000	22292
0.94067	22275
0.94133	22258
0.94200	22241
0.94267	22223
0.94333	22206
0.94400	22188
0.94467	22170
0.94533	22151
0.94600	22133
0.94667	22114
0.94733	22095
0.94800	22076
0.94867	22056
0.94933	22036
0.95000	22016
0.95067	21996
0.95133	21975
0.95200	21954
0.95267	21933
0.95333	21912
0.95400	21891
0.95467	21869
0.95533	21847
0.95600	21826
0.95667	21804
0.95733	21782
0.95800	21760
0.95867	21738
0.95933	21717
0.96000	21695
0.96067	21673
0.96133	21651
0.96200	21629
0.96267	21608
0.96333	21586
0.96400	21564
0.96467	21543
0.96533	21521
0.96600	21500
0.96667	21479
0.96733	21458
0.96800	21436
0.96867	21415
0.96933	21394
0.97000	21373
0.97067	21351
0.97133	21330
0.97200	21309
0.97267	21287
0.97333	21266
0.97400	21244
0.97467	21222
0.97533	21200
0.97600	21178
0.97667	21156
0.97733	21134
0.97800	21111
0.97867	21089
0.97933	21066
0.98000	21043
0.98067	21020
0.98133	20996
0.98200	20973
0.98267	20949
0.98333	20925
0.98400	20901
0.98467	20876
0.98533	20852
0.98600	20828
0.98667	20803
0.98733	20778
0.98800	20753
0.98867	20728
0.98933	20703
0.99000	20678
0.99067	20653
0.99133	20628
0.99200	20603
0.99267	20578
0.99333	20553
0.99400	20528
0.99467	20503
0.99533	20478
0.99600	20453
0.99667	20428
0.99733	20403
0.99800	20378
0.99867	20353
0.99933	20328
1.00000	20304
1.00067	20279
1.00133	20255
1.00200	20230
1.00267	20206
1.00333	20182
1.00400	20157
1.00467	20133
1.00533	20110
1.00600	20086
1.00667	20062
1.00733	20039
1.00800	20015
1.00867	19992
1.00933	19969
1.01000	19946
1.01067	19923
1.01133	19901
1.01200	19878
1.01267	19856
1.01333	19834
1.01400	19812
1.01467	19791
1.01533	19769
1.01600	19748
1.01667	19728
1.01733	19707
1.01800	19687
1.01867	19667
1.01933	19648
1.02000	19629
1.02067	19610
1.02133	19591
1.02200	19573
1.02267	19556
1.02333	19538
1.02400	19521
1.02467	19505
1.02533	19489
1.02600	19473
1.02667	19457
1.02733	19442
1.02800	19426
1.02867	19411
1.02933	19397
1.03000	19382
1.03067	19368
1.03133	19354
1.03200	19340
1.03267	19326
1.03333	19312
1.03400	19298
1.03467	19284
1.03533	19270
1.03600	19256
1.03667	19242
1.03733	19228
1.03800	19214
1.03867	19200
1.03933	19186
1.04000	19172
1.04067	19157
1.04133	19142
1.04200	19128
1.04267	19113
1.04333	19098
1.04400	19083
1.04467	19068
1.04533	19053
1.04600	19037
1.04667	19022
1.04733	19006
1.04800	18990
1.04867	18974
1.04933	18958
1.05000	18942
1.05067	18926
1.05133	18910
1.05200	18894
1.05267	18878
1.05333	18862
1.05400	18846
1.05467	18830
1.05533	18814
1.05600	18797
1.05667	18781
1.05733	18765
1.05800	18749
1.05867	18732
1.05933	18716
1.06000	18700
1.06067	18684
1.06133	18667
1.06200	18651
1.06267	18634
1.06333	18618
1.06400	18602
1.06467	18585
1.06533	18569
1.06600	18552
1.06667	18536
1.06733	18520
1.06800	18504
1.06867	18487
1.06933	18471
1.07000	18455
1.07067	18439
1.07133	18423
1.07200	18407
1.07267	18391
1.07333	18375
1.07400	18359
1.07467	18344
1.07533	18328
1.07600	18313
1.07667	18297
1.07733	18282
1.07800	18267
1.07867	18252
1.07933	18237
1.08000	18222
1.08067	18207
1.08133	18193
1.08200	18179
1.08267	18164
1.08333	18150
1.08400	18136
1.08467	18123
1.08533	18109
1.08600	18095
1.08667	18082
1.08733	18068
1.08800	18055
1.08867	18041
1.08933	18028
1.09000	18015
1.09067	18002
1.09133	17989
1.09200	17976
1.09267	17963
1.09333	17951
1.09400	17938
1.09467	17925
1.09533	17913
1.09600	17900
1.09667	17888
1.09733	17876
1.09800	17864
1.09867	17852
1.09933	17840
1.10000	17828
1.10067	17816
1.10133	17805
1.10200	17794
1.10267	17782
1.10333	17771
1.10400	17760
1.10467	17750
1.10533	17739
1.10600	17729
1.10667	17720
1.10733	17710
1.10800	17701
1.10867	17691
1.10933	17683
1.11000	17674
1.11067	17665
1.11133	17657
1.11200	17649
1.11267	17641
1.11333	17634
1.11400	17626
1.11467	17618
1.11533	17611
1.11600	17604
1.11667	17596
1.11733	17589
1.11800	17582
1.11867	17575
1.11933	17568
1.12000	17560
1.12067	17553
1.12133	17546
1.12200	17538
1.12267	17531
1.12333	17523
1.12400	17516
1.12467	17508
1.12533	17500
1.12600	17492
1.12667	17484
1.12733	17475
1.12800	17467
1.12867	17459
1.12933	17450
1.13000	17442
1.13067	17433
1.13133	17424
1.13200	17416
1.13267	17407
1.13333	17398
1.13400	17389
1.13467	17380
1.13533	17370
1.13600	17361
1.13667	17352
1.13733	17342
1.13800	17332
1.13867	17323
1.13933	17313
1.14000	17303
1.14067	17292
1.14133	17282
1.14200	17272
1.14267	17261
1.14333	17250
1.14400	17239
1.14467	17228
1.14533	17217
1.14600	17206
1.14667	17195
1.14733	17183
1.14800	17172
1.14867	17160
1.14933	17148
1.15000	17136
1.15067	17125
1.15133	17113
1.15200	17101
1.15267	17089
1.15333	17077
1.15400	17065
1.15467	17053
1.15533	17040
1.15600	17028
1.15667	17016
1.15733	17004
1.15800	16992
1.15867	16979
1.15933	16967
1.16000	16955
1.16067	16943
1.16133	16931
1.16200	16918
1.16267	16906
1.16333	16894
1.16400	16882
1.16467	16870
1.16533	16858
1.16600	16846
1.16667	16834
1.16733	16823
1.16800	16811
1.16867	16799
1.16933	16787
1.17000	16776
1.17067	16764
1.17133	16753
1.17200	16741
1.17267	16730
1.17333	16718
1.17400	16707
1.17467	16696
1.17533	16685
1.17600	16673
1.17667	16662
1.17733	16651
1.17800	16641
1.17867	16630
1.17933	16619
1.18000	16609
1.18067	16598
1.18133	16588
1.18200	16577
1.18267	16567
1.18333	16557
1.18400	16547
1.18467	16538
1.18533	16528
1.18600	16519
1.18667	16510
1.18733	16500
1.18800	16492
1.18867	16483
1.18933	16474
1.19000	16466
1.19067	16458
1.19133	16450
1.19200	16443
1.19267	16435
1.19333	16428
1.19400	16421
1.19467	16414
1.19533	16408
1.19600	16402
1.19667	16396
1.19733	16390
1.19800	16384
1.19867	16379
1.19933	16374
1.20000	16369
1.20067	16364
1.20133	16360
1.20200	16356
1.20267	16352
1.20333	16348
1.20400	16344
1.20467	16341
1.20533	16338
1.20600	16335
1.20667	16332
1.20733	16329
1.20800	16327
1.20867	16325
1.20933	16323
1.21000	16321
1.21067	16320
1.21133	16318
1.21200	16317
1.21267	16316
1.21333	16315
1.21400	16314
1.21467	16314
1.21533	16313
1.21600	16313
1.21667	16313
1.21733	16313
1.21800	16313
1.21867	16313
1.21933	16314
1.22000	16314
1.22067	16315
1.22133	16316
1.22200	16316
1.22267	16317
1.22333	16318
1.22400	16319
1.22467	16320
1.22533	16322
1.22600	16323
1.22667	16324
1.22733	16325
1.22800	16327
1.22867	16328
1.22933	16330
1.23000	16331
1.23067	16333
1.23133	16334
1.23200	16336
1.23267	16338
1.23333	16339
1.23400	16341
1.23467	16343
1.23533	16345
1.23600	16346
1.23667	16348
1.23733	16350
1.23800	16352
1.23867	16355
1.23933	16357
1.24000	16359
1.24067	16362
1.24133	16365
1.24200	16368
1.24267	16372
1.24333	16376
1.24400	16380
1.24467	16385
1.24533	16390
1.24600	16396
1.24667	16402
1.24733	16409
1.24800	16416
1.24867	16425
1.24933	16434
1.25000	16444
1.25067	16456
1.25133	16468
1.25200	16481
1.25267	16496
1.25333	16512
1.25400	16528
1.25467	16546
1.25533	16566
1.25600	16586
1.25667	16607
1.25733	16630
1.25800	16653
1.25867	16677
1.25933	16703
1.26000	16728
1.26067	16755
1.26133	16782
1.26200	16809
1.26267	16837
1.26333	16864
1.26400	16892
1.26467	16919
1.26533	16946
1.26600	16972
1.26667	16998
1.26733	17023
1.26800	17047
1.26867	17071
1.26933	17093
1.27000	17114
1.27067	17135
1.27133	17154
1.27200	17171
1.27267	17188
1.27333	17203
1.27400	17217
1.27467	17229
1.27533	17240
1.27600	17250
1.27667	17258
1.27733	17265
1.27800	17270
1.27867	17275
1.27933	17278
1.28000	17279
1.28067	17280
1.28133	17279
1.28200	17277
1.28267	17274
1.28333	17270
1.28400	17265
1.28467	17259
1.28533	17251
1.28600	17243
1.28667	17234
1.28733	17224
1.28800	17213
1.28867	17202
1.28933	17190
1.29000	17177
1.29067	17164
1.29133	17149
1.29200	17135
1.29267	17120
1.29333	17104
1.29400	17088
1.29467	17072
1.29533	17055
1.29600	17037
1.29667	17020
1.29733	17002
1.29800	16984
1.29867	16966
1.29933	16947
1.30000	16928
1.30067	16909
1.30133	16890
1.30200	16870
1.30267	16851
1.30333	16831
1.30400	16811
1.30467	16791
1.30533	16771
1.30600	16751
1.30667	16731
1.30733	16711
1.30800	16690
1.30867	16670
1.30933	16649
1.31000	16629
1.31067	16608
1.31133	16587
1.31200	16566
1.31267	16545
1.31333	16525
1.31400	16504
1.31467	16483
1.31533	16462
1.31600	16441
1.31667	16420
1.31733	16399
1.31800	16378
1.31867	16357
1.31933	16336
1.32000	16315
1.32067	16295
1.32133	16274
1.32200	16253
1.32267	16232
1.32333	16211
1.32400	16191
1.32467	16170
1.32533	16150
1.32600	16129
1.32667	16109
1.32733	16089
1.32800	16069
1.32867	16049
1.32933	16029
1.33000	16009
1.33067	15989
1.33133	15969
1.33200	15950
1.33267	15931
1.33333	15912
1.33400	15893
1.33467	15874
1.33533	15855
1.33600	15836
1.33667	15818
1.33733	15800
1.33800	15781
1.33867	15763
1.33933	15746
1.34000	15728
1.34067	15710
1.34133	15693
1.34200	15676
1.34267	15658
1.34333	15642
1.34400	15625
1.34467	15608
1.34533	15592
1.34600	15576
1.34667	15559
1.34733	15543
1.34800	15528
1.34867	15512
1.34933	15496
1.35000	15481
1.35067	15466
1.35133	15451
1.35200	15436
1.35267	15421
1.35333	15406
1.35400	15392
1.35467	15378
1.35533	15364
1.35600	15350
1.35667	15336
1.35733	15322
1.35800	15309
1.35867	15295
1.35933	15282
1.36000	15269
1.36067	15256
1.36133	15244
1.36200	15231
1.36267	15219
1.36333	15206
1.36400	15194
1.36467	15182
1.36533	15170
1.36600	15159
1.36667	15147
1.36733	15136
1.36800	15124
1.36867	15113
1.36933	15102
1.37000	15091
1.37067	15080
1.37133	15069
1.37200	15058
1.37267	15047
1.37333	15036
1.37400	15026
1.37467	15015
1.37533	15005
1.37600	14995
1.37667	14985
1.37733	14975
1.37800	14965
1.37867	14955
1.37933	14945
1.38000	14935
1.38067	14926
1.38133	14916
1.38200	14906
1.38267	14897
1.38333	14887
1.38400	14878
1.38467	14869
1.38533	14860
1.38600	14850
1.38667	14841
1.38733	14832
1.38800	14823
1.38867	14814
1.38933	14806
1.39000	14797
1.39067	14788
1.39133	14779
1.39200	14771
1.39267	14762
1.39333	14753
1.39400	14745
1.39467	14736
1.39533	14728
1.39600	14719
1.39667	14711
1.39733	14702
1.39800	14694
1.39867	14685
1.39933	14677
1.40000	14669
1.40067	14660
1.40133	14652
1.40200	14644
1.40267	14636
1.40333	14628
1.40400	14620
1.40467	14612
1.40533	14603
1.40600	14595
1.40667	14587
1.40733	14579
1.40800	14571
1.40867	14563
1.40933	14555
1.41000	14547
1.41067	14539
1.41133	14531
1.41200	14523
1.41267	14515
1.41333	14507
1.41400	14499
1.41467	14492
1.41533	14484
1.41600	14476
1.41667	14468
1.41733	14461
1.41800	14453
1.41867	14446
1.41933	14438
1.42000	14431
1.42067	14423
1.42133	14416
1.42200	14408
1.42267	14401
1.42333	14394
1.42400	14387
1.42467	14379
1.42533	14372
1.42600	14365
1.42667	14358
1.42733	14351
1.42800	14344
1.42867	14337
1.42933	14330
1.43000	14323
1.43067	14316
1.43133	14309
1.43200	14302
1.43267	14295
1.43333	14289
1.43400	14282
1.43467	14275
1.43533	14269
1.43600	14262
1.43667	14256
1.43733	14249
1.43800	14243
1.43867	14236
1.43933	14230
1.44000	14223
1.44067	14217
1.44133	14211
1.44200	14205
1.44267	14199
1.44333	14193
1.44400	14187
1.44467	14181
1.44533	14175
1.44600	14169
1.44667	14163
1.44733	14158
1.44800	14152
1.44867	14147
1.44933	14141
1.45000	14136
1.45067	14131
1.45133	14126
1.45200	14121
1.45267	14116
1.45333	14111
1.45400	14106
1.45467	14102
1.45533	14097
1.45600	14093
1.45667	14088
1.45733	14084
1.45800	14080
1.45867	14076
1.45933	14071
1.46000	14067
1.46067	14063
1.46133	14059
1.46200	14055
1.46267	14051
1.46333	14047
1.46400	14043
1.46467	14039
1.46533	14034
1.46600	14030
1.46667	14026
1.46733	14022
1.46800	14017
1.46867	14013
1.46933	14008
1.47000	14004
1.47067	13999
1.47133	13994
1.47200	13990
1.47267	13985
1.47333	13980
1.47400	13975
1.47467	13971
1.47533	13966
1.47600	13961
1.47667	13955
1.47733	13950
1.47800	13945
1.47867	13940
1.47933	13934
1.48000	13929
1.48067	13923
1.48133	13918
1.48200	13912
1.48267	13907
1.48333	13901
1.48400	13895
1.48467	13889
1.48533	13883
1.48600	13877
1.48667	13871
1.48733	13865
1.48800	13859
1.48867	13853
1.48933	13847
1.49000	13840
1.49067	13834
1.49133	13828
1.49200	13821
1.49267	13815
1.49333	13808
1.49400	13801
1.49467	13795
1.49533	13788
1.49600	13782
1.49667	13775
1.49733	13768
1.49800	13762
1.49867	13755
1.49933	13748
1.50000	13741
1.50067	13734
1.50133	13727
1.50200	13721
1.50267	13714
1.50333	13707
1.50400	13700
1.50467	13693
1.50533	13686
1.50600	13679
1.50667	13672
1.50733	13666
1.50800	13659
1.50867	13652
1.50933	13645
1.51000	13638
1.51067	13632
1.51133	13625
1.51200	13618
1.51267	13611
1.51333	13605
1.51400	13598
1.51467	13592
1.51533	13585
1.51600	13579
1.51667	13572
1.51733	13566
1.51800	13560
1.51867	13553
1.51933	13547
1.52000	13541
1.52067	13535
1.52133	13529
1.52200	13523
1.52267	13517
1.52333	13511
1.52400	13505
1.52467	13499
1.52533	13493
1.52600	13487
1.52667	13481
1.52733	13476
1.52800	13470
1.52867	13464
1.52933	13458
1.53000	13452
1.53067	13447
1.53133	13441
1.53200	13435
1.53267	13430
1.53333	13424
1.53400	13419
1.53467	13413
1.53533	13408
1.53600	13402
1.53667	13397
1.53733	13391
1.53800	13386
1.53867	13381
1.53933	13375
1.54000	13370
1.54067	13365
1.54133	13360
1.54200	13354
1.54267	13349
1.54333	13344
1.54400	13338
1.54467	13333
1.54533	13328
1.54600	13323
1.54667	13317
1.54733	13312
1.54800	13307
1.54867	13302
1.54933	13297
1.55000	13292
1.55067	13287
1.55133	13282
1.55200	13276
1.55267	13271
1.55333	13266
1.55400	13261
1.55467	13256
1.55533	13251
1.55600	13246
1.55667	13241
1.55733	13236
1.55800	13231
1.55867	13227
1.55933	13222
1.56000	13217
1.56067	13212
1.56133	13207
1.56200	13202
1.56267	13197
1.56333	13193
1.56400	13188
1.56467	13183
1.56533	13178
1.56600	13173
1.56667	13168
1.56733	13164
1.56800	13159
1.56867	13154
1.56933	13149
1.57000	13145
1.57067	13140
1.57133	13135
1.57200	13131
1.57267	13126
1.57333	13121
1.57400	13117
1.57467	13112
1.57533	13108
1.57600	13103
1.57667	13099
1.57733	13094
1.57800	13090
1.57867	13086
1.57933	13081
1.58000	13077
1.58067	13072
1.58133	13068
1.58200	13064
1.58267	13059
1.58333	13055
1.58400	13051
1.58467	13047
1.58533	13042
1.58600	13038
1.58667	13034
1.58733	13030
1.58800	13025
1.58867	13021
1.58933	13017
1.59000	13013
1.59067	13009
1.59133	13005
1.59200	13001
1.59267	12997
1.59333	12993
1.59400	12989
1.59467	12984
1.59533	12980
1.59600	12976
1.59667	12972
1.59733	12968
1.59800	12964
1.59867	12960
1.59933	12956
1.60000	12952
1.60067	12948
1.60133	12944
1.60200	12940
1.60267	12936
1.60333	12932
1.60400	12928
1.60467	12924
1.60533	12920
1.60600	12916
1.60667	12912
1.60733	12908
1.60800	12904
1.60867	12900
1.60933	12896
1.61000	12892
1.61067	12888
1.61133	12885
1.61200	12881
1.61267	12877
1.61333	12874
1.61400	12870
1.61467	12867
1.61533	12863
1.61600	12860
1.61667	12856
1.61733	12853
1.61800	12850
1.61867	12846
1.61933	12843
1.62000	12840
1.62067	12837
1.62133	12834
1.62200	12830
1.62267	12827
1.62333	12825
1.62400	12822
1.62467	12819
1.62533	12816
1.62600	12813
1.62667	12810
1.62733	12807
1.62800	12805
1.62867	12802
1.62933	12799
1.63000	12796
1.63067	12794
1.63133	12791
1.63200	12788
1.63267	12786
1.63333	12783
1.63400	12781
1.63467	12778
1.63533	12776
1.63600	12774
1.63667	12771
1.63733	12769
1.63800	12767
1.63867	12764
1.63933	12762
1.64000	12760
1.64067	12757
1.64133	12755
1.64200	12752
1.64267	12750
1.64333	12748
1.64400	12745
1.64467	12743
1.64533	12740
1.64600	12738
1.64667	12736
1.64733	12733
1.64800	12731
1.64867	12728
1.64933	12726
1.65000	12724
1.65067	12721
1.65133	12719
1.65200	12717
1.65267	12715
1.65333	12712
1.65400	12710
1.65467	12708
1.65533	12706
1.65600	12703
1.65667	12701
1.65733	12699
1.65800	12697
1.65867	12694
1.65933	12692
1.66000	12690
1.66067	12687
1.66133	12685
1.66200	12683
1.66267	12680
1.66333	12678
1.66400	12676
1.66467	12673
1.66533	12671
1.66600	12668
1.66667	12666
1.66733	12663
1.66800	12661
1.66867	12658
1.66933	12655
1.67000	12652
1.67067	12650
1.67133	12647
1.67200	12644
1.67267	12641
1.67333	12638
1.67400	12635
1.67467	12632
1.67533	12629
1.67600	12625
1.67667	12622
1.67733	12619
1.67800	12615
1.67867	12612
1.67933	12608
1.68000	12605
1.68067	12601
1.68133	12597
1.68200	12594
1.68267	12590
1.68333	12586
1.68400	12583
1.68467	12579
1.68533	12575
1.68600	12571
1.68667	12567
1.68733	12563
1.68800	12559
1.68867	12554
1.68933	12550
1.69000	12546
1.69067	12542
1.69133	12537
1.69200	12533
1.69267	12528
1.69333	12524
1.69400	12519
1.69467	12514
1.69533	12510
1.69600	12505
1.69667	12501
1.69733	12496
1.69800	12492
1.69867	12487
1.69933	12482
1.70000	12478
1.70067	12473
1.70133	12469
1.70200	12464
1.70267	12459
1.70333	12455
1.70400	12450
1.70467	12446
1.70533	12441
1.70600	12437
1.70667	12433
1.70733	12428
1.70800	12424
1.70867	12420
1.70933	12415
1.71000	12411
1.71067	12407
1.71133	12403
1.71200	12399
1.71267	12395
1.71333	12391
1.71400	12387
1.71467	12384
1.71533	12380
1.71600	12377
1.71667	12375
1.71733	12372
1.71800	12371
1.71867	12369
1.71933	12369
1.72000	12370
1.72067	12372
1.72133	12376
1.72200	12381
1.72267	12390
1.72333	12401
1.72400	12416
1.72467	12435
1.72533	12460
1.72600	12491
1.72667	12530
1.72733	12579
1.72800	12639
1.72867	12712
1.72933	12801
1.73000	12907
1.73067	13036
1.73133	13189
1.73200	13372
1.73267	13589
1.73333	13845
1.73400	14147
1.73467	14500
1.73533	14912
1.73600	15390
1.73667	15944
1.73733	16583
1.73800	17318
1.73867	18160
1.73933	19121
1.74000	20215
1.74067	21455
1.74133	22856
1.74200	24433
1.74267	26202
1.74333	28180
1.74400	30386
1.74467	32841
1.74533	35562
1.74600	38570
1.74667	41885
1.74733	45526
1.74800	49511
1.74867	53861
1.74933	58595
1.75000	63733
1.75067	69295
1.75133	75299
1.75200	81766
1.75267	88718
1.75333	96173
1.75400	104152
1.75467	112676
1.75533	121766
1.75600	131440
1.75667	141714
1.75733	152604
1.75800	164121
1.75867	176275
1.75933	189075
1.76000	202530
1.76067	216650
1.76133	231441
1.76200	246906
1.76267	263049
1.76333	279872
1.76400	297369
1.76467	315533
1.76533	334355
1.76600	353823
1.76667	373929
1.76733	394662
1.76800	416008
1.76867	437949
1.76933	460463
1.77000	483523
1.77067	507089
1.77133	531113
1.77200	555542
1.77267	580313
1.77333	605359
1.77400	630600
1.77467	655949
1.77533	681307
1.77600	706571
1.77667	731630
1.77733	756368
1.77800	780664
1.77867	804396
1.77933	827437
1.78000	849664
1.78067	870955
1.78133	891204
1.78200	910308
1.78267	928178
1.78333	944734
1.78400	959913
1.78467	973665
1.78533	985958
1.78600	996768
1.78667	1006091
1.78733	1013930
1.78800	1020304
1.78867	1025242
1.78933	1028779
1.79000	1030962
1.79067	1031840
1.79133	1031469
1.79200	1029907
1.79267	1027217
1.79333	1023460
1.79400	1018701
1.79467	1013001
1.79533	1006425
1.79600	999033
1.79667	990886
1.79733	982041
1.79800	972556
1.79867	962484
1.79933	951876
1.80000	940784
1.80067	929252
1.80133	917327
1.80200	905051
1.80267	892463
1.80333	879602
1.80400	866505
1.80467	853204
1.80533	839731
1.80600	826116
1.80667	812388
1.80733	798572
1.80800	784692
1.80867	770772
1.80933	756834
1.81000	742896
1.81067	728977
1.81133	715095
1.81200	701266
1.81267	687504
1.81333	673823
1.81400	660235
1.81467	646752
1.81533	633384
1.81600	620142
1.81667	607034
1.81733	594068
1.81800	581251
1.81867	568590
1.81933	556091
1.82000	543758
1.82067	531597
1.82133	519612
1.82200	507805
1.82267	496180
1.82333	484740
1.82400	473487
1.82467	462422
1.82533	451547
1.82600	440863
1.82667	430371
1.82733	420070
1.82800	409963
1.82867	400047
1.82933	390322
1.83000	380789
1.83067	371446
1.83133	362292
1.83200	353326
1.83267	344546
1.83333	335952
1.83400	327540
1.83467	319311
1.83533	311260
1.83600	303388
1.83667	295691
1.83733	288167
1.83800	280813
1.83867	273629
1.83933	266610
1.84000	259755
1.84067	253062
1.84133	246527
1.84200	240148
1.84267	233923
1.84333	227849
1.84400	221923
1.84467	216143
1.84533	210506
1.84600	205009
1.84667	199651
1.84733	194427
1.84800	189336
1.84867	184375
1.84933	179542
1.85000	174833
1.85067	170246
1.85133	165779
1.85200	161429
1.85267	157193
1.85333	153069
1.85400	149054
1.85467	145147
1.85533	141344
1.85600	137643
1.85667	134042
1.85733	130538
1.85800	127130
1.85867	123815
1.85933	120591
1.86000	117456
1.86067	114407
1.86133	111442
1.86200	108560
1.86267	105758
1.86333	103034
1.86400	100387
1.86467	97814
1.86533	95313
1.86600	92883
1.86667	90521
1.86733	88226
1.86800	85997
1.86867	83831
1.86933	81726
1.87000	79682
1.87067	77696
1.87133	75767
1.87200	73894
1.87267	72074
1.87333	70307
1.87400	68590
1.87467	66924
1.87533	65305
1.87600	63733
1.87667	62207
1.87733	60726
1.87800	59288
1.87867	57891
1.87933	56536
1.88000	55220
1.88067	53942
1.88133	52703
1.88200	51499
1.88267	50331
1.88333	49198
1.88400	48098
1.88467	47030
1.88533	45994
1.88600	44990
1.88667	44015
1.88733	43069
1.88800	42151
1.88867	41261
1.88933	40397
1.89000	39560
1.89067	38747
1.89133	37959
1.89200	37195
1.89267	36455
1.89333	35736
1.89400	35040
1.89467	34364
1.89533	33710
1.89600	33075
1.89667	32460
1.89733	31863
1.89800	31285
1.89867	30724
1.89933	30181
1.90000	29654
1.90067	29143
1.90133	28648
1.90200	28168
1.90267	27703
1.90333	27252
1.90400	26815
1.90467	26391
1.90533	25981
1.90600	25583
1.90667	25197
1.90733	24823
1.90800	24461
1.90867	24110
1.90933	23769
1.91000	23439
1.91067	23120
1.91133	22810
1.91200	22509
1.91267	22218
1.91333	21936
1.91400	21662
1.91467	21397
1.91533	21140
1.91600	20890
1.91667	20649
1.91733	20415
1.91800	20188
1.91867	19968
1.91933	19754
1.92000	19548
1.92067	19347
1.92133	19153
1.92200	18965
1.92267	18782
1.92333	18605
1.92400	18433
1.92467	18267
1.92533	18105
1.92600	17948
1.92667	17796
1.92733	17648
1.92800	17505
1.92867	17366
1.92933	17230
1.93000	17099
1.93067	16972
1.93133	16848
1.93200	16727
1.93267	16610
1.93333	16497
1.93400	16387
1.93467	16279
1.93533	16175
1.93600	16074
1.93667	15975
1.93733	15879
1.93800	15786
1.93867	15696
1.93933	15607
1.94000	15521
1.94067	15438
1.94133	15356
1.94200	15277
1.94267	15200
1.94333	15124
1.94400	15051
1.94467	14979
1.94533	14910
1.94600	14842
1.94667	14776
1.94733	14711
1.94800	14649
1.94867	14588
1.94933	14528
1.95000	14470
1.95067	14414
1.95133	14359
1.95200	14305
1.95267	14253
1.95333	14202
1.95400	14152
1.95467	14104
1.95533	14057
1.95600	14011
1.95667	13966
1.95733	13922
1.95800	13879
1.95867	13837
1.95933	13795
1.96000	13755
1.96067	13716
1.96133	13678
1.96200	13640
1.96267	13604
1.96333	13568
1.96400	13533
1.96467	13498
1.96533	13465
1.96600	13432
1.96667	13400
1.96733	13368
1.96800	13337
1.96867	13307
1.96933	13277
1.97000	13248
1.97067	13220
1.97133	13192
1.97200	13165
1.97267	13138
1.97333	13111
1.97400	13086
1.97467	13060
1.97533	13035
1.97600	13011
1.97667	12987
1.97733	12964
1.97800	12941
1.97867	12918
1.97933	12896
1.98000	12875
1.98067	12854
1.98133	12833
1.98200	12812
1.98267	12792
1.98333	12773
1.98400	12754
1.98467	12735
1.98533	12716
1.98600	12698
1.98667	12680
1.98733	12663
1.98800	12645
1.98867	12628
1.98933	12612
1.99000	12595
1.99067	12579
1.99133	12564
1.99200	12548
1.99267	12533
1.99333	12518
1.99400	12503
1.99467	12488
1.99533	12474
1.99600	12460
1.99667	12446
1.99733	12432
1.99800	12418
1.99867	12405
1.99933	12392
2.00000	12379
2.00067	12366
2.00133	12353
2.00200	12340
2.00267	12327
2.00333	12315
2.00400	12303
2.00467	12290
2.00533	12278
2.00600	12266
2.00667	12254
2.00733	12243
2.00800	12231
2.00867	12220
2.00933	12208
2.01000	12197
2.01067	12185
2.01133	12174
2.01200	12163
2.01267	12152
2.01333	12141
2.01400	12131
2.01467	12120
2.01533	12109
2.01600	12099
2.01667	12088
2.01733	12078
2.01800	12067
2.01867	12057
2.01933	12047
2.02000	12036
2.02067	12026
2.02133	12016
2.02200	12005
2.02267	11995
2.02333	11985
2.02400	11975
2.02467	11966
2.02533	11956
2.02600	11946
2.02667	11936
2.02733	11927
2.02800	11917
2.02867	11908
2.02933	11899
2.03000	11889
2.03067	11880
2.03133	11871
2.03200	11861
2.03267	11852
2.03333	11843
2.03400	11834
2.03467	11825
2.03533	11816
2.03600	11807
2.03667	11798
2.03733	11790
2.03800	11781
2.03867	11772
2.03933	11764
2.04000	11755
2.04067	11747
2.04133	11739
2.04200	11730
2.04267	11722
2.04333	11714
2.04400	11706
2.04467	11698
2.04533	11690
2.04600	11682
2.04667	11675
2.04733	11667
2.04800	11660
2.04867	11652
2.04933	11645
2.05000	11637
2.05067	11630
2.05133	11623
2.05200	11615
2.05267	11608
2.05333	11601
2.05400	11594
2.05467	11587
2.05533	11580
2.05600	11573
2.05667	11566
2.05733	11558
2.05800	11551
2.05867	11544
2.05933	11537
2.06000	11530
2.06067	11523
2.06133	11516
2.06200	11509
2.06267	11502
2.06333	11495
2.06400	11488
2.06467	11481
2.06533	11475
2.06600	11468
2.06667	11461
2.06733	11454
2.06800	11447
2.06867	11441
2.06933	11434
2.07000	11427
2.07067	11421
2.07133	11414
2.07200	11408
2.07267	11401
2.07333	11395
2.07400	11389
2.07467	11383
2.07533	11376
2.07600	11370
2.07667	11364
2.07733	11358
2.07800	11352
2.07867	11346
2.07933	11340
2.08000	11334
2.08067	11328
2.08133	11322
2.08200	11316
2.08267	11310
2.08333	11304
2.08400	11298
2.08467	11292
2.08533	11285
2.08600	11279
2.08667	11273
2.08733	11267
2.08800	11261
2.08867	11255
2.08933	11249
2.09000	11243
2.09067	11237
2.09133	11231
2.09200	11224
2.09267	11218
2.09333	11212
2.09400	11206
2.09467	11200
2.09533	11194
2.09600	11188
2.09667	11183
2.09733	11177
2.09800	11171
2.09867	11165
2.09933	11160
2.10000	11154
2.10067	11149
2.10133	11143
2.10200	11138
2.10267	11132
2.10333	11127
2.10400	11122
2.10467	11116
2.10533	11111
2.10600	11106
2.10667	11100
2.10733	11095
2.10800	11090
2.10867	11084
2.10933	11079
2.11000	11074
2.11067	11068
2.11133	11063
2.11200	11058
2.11267	11053
2.11333	11047
2.11400	11042
2.11467	11037
2.11533	11032
2.11600	11027
2.11667	11021
2.11733	11016
2.11800	11011
2.11867	11006
2.11933	11001
2.12000	10996
2.12067	10990
2.12133	10985
2.12200	10980
2.12267	10975
2.12333	10970
2.12400	10965
2.12467	10960
2.12533	10955
2.12600	10949
2.12667	10944
2.12733	10939
2.12800	10934
2.12867	10929
2.12933	10924
2.13000	10919
2.13067	10913
2.13133	10908
2.13200	10903
2.13267	10898
2.13333	10893
2.13400	10888
2.13467	10882
2.13533	10877
2.13600	10872
2.13667	10868
2.13733	10863
2.13800	10858
2.13867	10853
2.13933	10848
2.14000	10843
2.14067	10838
2.14133	10833
2.14200	10828
2.14267	10823
2.14333	10818
2.14400	10813
2.14467	10808
2.14533	10803
2.14600	10798
2.14667	10794
2.14733	10789
2.14800	10784
2.14867	10779
2.14933	10774
2.15000	10769
2.15067	10764
2.15133	10760
2.15200	10755
2.15267	10750
2.15333	10745
2.15400	10740
2.15467	10735
2.15533	10730
2.15600	10726
2.15667	10721
2.15733	10716
2.15800	10711
2.15867	10707
2.15933	10702
2.16000	10697
2.16067	10692
2.16133	10688
2.16200	10683
2.16267	10678
2.16333	10674
2.16400	10669
2.16467	10665
2.16533	10660
2.16600	10656
2.16667	10651
2.16733	10647
2.16800	10642
2.16867	10638
2.16933	10633
2.17000	10629
2.17067	10624
2.17133	10620
2.17200	10615
2.17267	10611
2.17333	10606
2.17400	10602
2.17467	10597
2.17533	10593
2.17600	10589
2.17667	10584
2.17733	10580
2.17800	10576
2.17867	10571
2.17933	10567
2.18000	10562
2.18067	10558
2.18133	10554
2.18200	10550
2.18267	10545
2.18333	10541
2.18400	10537
2.18467	10533
2.18533	10528
2.18600	10524
2.18667	10520
2.18733	10516
2.18800	10512
2.18867	10508
2.18933	10504
2.19000	10500
2.19067	10496
2.19133	10492
2.19200	10488
2.19267	10484
2.19333	10480
2.19400	10476
2.19467	10473
2.19533	10469
2.19600	10465
2.19667	10461
2.19733	10458
2.19800	10454
2.19867	10451
2.19933	10447
2.20000	10443
2.20067	10440
2.20133	10436
2.20200	10433
2.20267	10429
2.20333	10426
2.20400	10422
2.20467	10418
2.20533	10415
2.20600	10412
2.20667	10408
2.20733	10405
2.20800	10401
2.20867	10398
2.20933	10395
2.21000	10391
2.21067	10388
2.21133	10385
2.21200	10382
2.21267	10379
2.21333	10376
2.21400	10373
2.21467	10370
2.21533	10367
2.21600	10365
2.21667	10362
2.21733	10359
2.21800	10357
2.21867	10354
2.21933	10352
2.22000	10349
2.22067	10347
2.22133	10344
2.22200	10342
2.22267	10339
2.22333	10337
2.22400	10334
2.22467	10332
2.22533	10330
2.22600	10327
2.22667	10325
2.22733	10322
2.22800	10320
2.22867	10318
2.22933	10315
2.23000	10313
2.23067	10311
2.23133	10308
2.23200	10306
2.23267	10303
2.23333	10301
2.23400	10299
2.23467	10296
2.23533	10294
2.23600	10291
2.23667	10289
2.23733	10286
2.23800	10284
2.23867	10281
2.23933	10278
2.24000	10276
2.24067	10273
2.24133	10271
2.24200	10268
2.24267	10265
2.24333	10262
2.24400	10260
2.24467	10257
2.24533	10254
2.24600	10251
2.24667	10248
2.24733	10245
2.24800	10242
2.24867	10239
2.24933	10237
2.25000	10234
2.25067	10231
2.25133	10228
2.25200	10225
2.25267	10223
2.25333	10220
2.25400	10217
2.25467	10215
2.25533	10212
2.25600	10209
2.25667	10206
2.25733	10204
2.25800	10201
2.25867	10198
2.25933	10196
2.26000	10193
2.26067	10191
2.26133	10188
2.26200	10185
2.26267	10182
2.26333	10180
2.26400	10177
2.26467	10174
2.26533	10171
2.26600	10169
2.26667	10166
2.26733	10163
2.26800	10160
2.26867	10157
2.26933	10155
2.27000	10152
2.27067	10149
2.27133	10146
2.27200	10143
2.27267	10140
2.27333	10137
2.27400	10134
2.27467	10131
2.27533	10129
2.27600	10126
2.27667	10123
2.27733	10120
2.27800	10117
2.27867	10114
2.27933	10111
2.28000	10108
2.28067	10105
2.28133	10102
2.28200	10099
2.28267	10096
2.28333	10093
2.28400	10091
2.28467	10088
2.28533	10085
2.28600	10082
2.28667	10079
2.28733	10076
2.28800	10073
2.28867	10070
2.28933	10067
2.29000	10064
2.29067	10061
2.29133	10058
2.29200	10056
2.29267	10053
2.29333	10050
2.29400	10047
2.29467	10044
2.29533	10041
2.29600	10039
2.29667	10036
2.29733	10033
2.29800	10030
2.29867	10027
2.29933	10025
2.30000	10022
2.30067	10019
2.30133	10017
2.30200	10014
2.30267	10011
2.30333	10009
2.30400	10006
2.30467	10004
2.30533	10001
2.30600	9999
2.30667	9996
2.30733	9994
2.30800	9991
2.30867	9989
2.30933	9987
2.31000	9984
2.31067	9982
2.31133	9979
2.31200	9977
2.31267	9975
2.31333	9973
2.31400	9970
2.31467	9968
2.31533	9966
2.31600	9963
2.31667	9961
2.31733	9959
2.31800	9957
2.31867	9954
2.31933	9952
2.32000	9950
2.32067	9948
2.32133	9945
2.32200	9943
2.32267	9941
2.32333	9939
2.32400	9937
2.32467	9935
2.32533	9933
2.32600	9931
2.32667	9929
2.32733	9927
2.32800	9925
2.32867	9923
2.32933	9921
2.33000	9919
2.33067	9917
2.33133	9915
2.33200	9913
2.33267	9912
2.33333	9910
2.33400	9908
2.33467	9907
2.33533	9905
2.33600	9903
2.33667	9902
2.33733	9900
2.33800	9899
2.33867	9897
2.33933	9896
2.34000	9894
2.34067	9893
2.34133	9891
2.34200	9890
2.34267	9889
2.34333	9887
2.34400	9886
2.34467	9885
2.34533	9884
2.34600	9883
2.34667	9882
2.34733	9881
2.34800	9880
2.34867	9879
2.34933	9878
2.35000	9877
2.35067	9876
2.35133	9875
2.35200	9875
2.35267	9874
2.35333	9874
2.35400	9873
2.35467	9873
2.35533	9872
2.35600	9872
2.35667	9872
2.35733	9872
2.35800	9872
2.35867	9872
2.35933	9872
2.36000	9872
2.36067	9872
2.36133	9872
2.36200	9872
2.36267	9872
2.36333	9872
2.36400	9872
2.36467	9873
2.36533	9873
2.36600	9873
2.36667	9873
2.36733	9873
2.36800	9873
2.36867	9873
2.36933	9872
2.37000	9872
2.37067	9872
2.37133	9872
2.37200	9871
2.37267	9871
2.37333	9870
2.37400	9869
2.37467	9868
2.37533	9868
2.37600	9867
2.37667	9866
2.37733	9865
2.37800	9864
2.37867	9862
2.37933	9861
2.38000	9860
2.38067	9859
2.38133	9857
2.38200	9856
2.38267	9854
2.38333	9853
2.38400	9851
2.38467	9849
2.38533	9847
2.38600	9846
2.38667	9844
2.38733	9842
2.38800	9840
2.38867	9838
2.38933	9835
2.39000	9833
2.39067	9831
2.39133	9829
2.39200	9826
2.39267	9824
2.39333	9821
2.39400	9819
2.39467	9816
2.39533	9813
2.39600	9811
2.39667	9808
2.39733	9805
2.39800	9802
2.39867	9800
2.39933	9797
2.40000	9794
2.40067	9792
2.40133	9789
2.40200	9786
2.40267	9783
2.40333	9781
2.40400	9778
2.40467	9775
2.40533	9772
2.40600	9770
2.40667	9767
2.40733	9764
2.40800	9762
2.40867	9759
2.40933	9756
2.41000	9754
2.41067	9751
2.41133	9749
2.41200	9746
2.41267	9744
2.41333	9741
2.41400	9739
2.41467	9736
2.41533	9734
2.41600	9731
2.41667	9729
2.41733	9726
2.41800	9724
2.41867	9721
2.41933	9719
2.42000	9717
2.42067	9714
2.42133	9712
2.42200	9710
2.42267	9707
2.42333	9705
2.42400	9702
2.42467	9700
2.42533	9698
2.42600	9695
2.42667	9693
2.42733	9691
2.42800	9688
2.42867	9686
2.42933	9683
2.43000	9681
2.43067	9679
2.43133	9676
2.43200	9674
2.43267	9671
2.43333	9669
2.43400	9666
2.43467	9664
2.43533	9661
2.43600	9658
2.43667	9656
2.43733	9653
2.43800	9650
2.43867	9648
2.43933	9645
2.44000	9642
2.44067	9639
2.44133	9637
2.44200	9634
2.44267	9631
2.44333	9628
2.44400	9625
2.44467	9622
2.44533	9618
2.44600	9615
2.44667	9612
2.44733	9609
2.44800	9605
2.44867	9602
2.44933	9599
2.45000	9595
2.45067	9592
2.45133	9588
2.45200	9585
2.45267	9581
2.45333	9578
2.45400	9574
2.45467	9570
2.45533	9567
2.45600	9563
2.45667	9559
2.45733	9556
2.45800	9552
2.45867	9548
2.45933	9544
2.46000	9541
2.46067	9537
2.46133	9533
2.46200	9529
2.46267	9526
2.46333	9522
2.46400	9518
2.46467	9515
2.46533	9511
2.46600	9507
2.46667	9503
2.46733	9500
2.46800	9496
2.46867	9492
2.46933	9489
2.47000	9485
2.47067	9481
2.47133	9478
2.47200	9474
2.47267	9470
2.47333	9466
2.47400	9463
2.47467	9459
2.47533	9455
2.47600	9452
2.47667	9448
2.47733	9445
2.47800	9441
2.47867	9437
2.47933	9434
2.48000	9430
2.48067	9427
2.48133	9423
2.48200	9419
2.48267	9416
2.48333	9412
2.48400	9409
2.48467	9406
2.48533	9402
2.48600	9399
2.48667	9395
2.48733	9392
2.48800	9389
2.48867	9385
2.48933	9382
2.49000	9379
2.49067	9375
2.49133	9372
2.49200	9369
2.49267	9365
2.49333	9362
2.49400	9359
2.49467	9355
2.49533	9352
2.49600	9349
2.49667	9345
2.49733	9342
2.49800	9338
2.49867	9335
2.49933	9332
2.50000	9328
2.50067	9325
2.50133	9321
2.50200	9318
2.50267	9314
2.50333	9311
2.50400	9308
2.50467	9304
2.50533	9301
2.50600	9297
2.50667	9294
2.50733	9290
2.50800	9287
2.50867	9283
2.50933	9279
2.51000	9276
2.51067	9272
2.51133	9269
2.51200	9265
2.51267	9261
2.51333	9258
2.51400	9254
2.51467	9251
2.51533	9247
2.51600	9244
2.51667	9240
2.51733	9236
2.51800	9233
2.51867	9229
2.51933	9226
2.52000	9222
2.52067	9219
2.52133	9215
2.52200	9212
2.52267	9208
2.52333	9205
2.52400	9201
2.52467	9198
2.52533	9194
2.52600	9191
2.52667	9187
2.52733	9183
2.52800	9180
2.52867	9176
2.52933	9173
2.53000	9169
2.53067	9165
2.53133	9162
2.53200	9158
2.53267	9155
2.53333	9151
2.53400	9148
2.53467	9144
2.53533	9140
2.53600	9137
2.53667	9133
2.53733	9130
2.53800	9126
2.53867	9122
2.53933	9119
2.54000	9115
2.54067	9112
2.54133	9108
2.54200	9105
2.54267	9101
2.54333	9098
2.54400	9094
2.54467	9091
2.54533	9087
2.54600	9084
2.54667	9080
2.54733	9077
2.54800	9074
2.54867	9070
2.54933	9067
2.55000	9063
2.55067	9060
2.55133	9057
2.55200	9053
2.55267	9050
2.55333	9047
2.55400	9043
2.55467	9040
2.55533	9037
2.55600	9034
2.55667	9030
2.55733	9027
2.55800	9024
2.55867	9021
2.55933	9018
2.56000	9015
2.56067	9012
2.56133	9008
2.56200	9005
2.56267	9002
2.56333	8999
2.56400	8996
2.56467	8993
2.56533	8989
2.56600	8986
2.56667	8983
2.56733	8980
2.56800	8977
2.56867	8974
2.56933	8971
2.57000	8968
2.57067	8965
2.57133	8961
2.57200	8958
2.57267	8955
2.57333	8952
2.57400	8949
2.57467	8946
2.57533	8944
2.57600	8941
2.57667	8938
2.57733	8935
2.57800	8932
2.57867	8930
2.57933	8927
2.58000	8924
2.58067	8922
2.58133	8919
2.58200	8917
2.58267	8914
2.58333	8912
2.58400	8909
2.58467	8907
2.58533	8904
2.58600	8902
2.58667	8900
2.58733	8897
2.58800	8895
2.58867	8893
2.58933	8890
2.59000	8888
2.59067	8886
2.59133	8884
2.59200	8881
2.59267	8879
2.59333	8877
2.59400	8875
2.59467	8872
2.59533	8870
2.59600	8868
2.59667	8866
2.59733	8863
2.59800	8861
2.59867	8859
2.59933	8857
2.60000	8855
2.60067	8852
2.60133	8850
2.60200	8848
2.60267	8846
2.60333	8844
2.60400	8842
2.60467	8840
2.60533	8838
2.60600	8836
2.60667	8834
2.60733	8832
2.60800	8830
2.60867	8828
2.60933	8826
2.61000	8824
2.61067	8822
2.61133	8820
2.61200	8818
2.61267	8816
2.61333	8814
2.61400	8812
2.61467	8810
2.61533	8808
2.61600	8806
2.61667	8804
2.61733	8802
2.61800	8800
2.61867	8798
2.61933	8796
2.62000	8794
2.62067	8792
2.62133	8790
2.62200	8788
2.62267	8786
2.62333	8783
2.62400	8781
2.62467	8779
2.62533	8777
2.62600	8775
2.62667	8772
2.62733	8770
2.62800	8768
2.62867	8766
2.62933	8763
2.63000	8761
2.63067	8759
2.63133	8757
2.63200	8754
2.63267	8752
2.63333	8750
2.63400	8748
2.63467	8745
2.63533	8743
2.63600	8740
2.63667	8738
2.63733	8735
2.63800	8733
2.63867	8730
2.63933	8728
2.64000	8725
2.64067	8723
2.64133	8720
2.64200	8718
2.64267	8715
2.64333	8713
2.64400	8710
2.64467	8708
2.64533	8705
2.64600	8702
2.64667	8700
2.64733	8697
2.64800	8694
2.64867	8692
2.64933	8689
2.65000	8686
2.65067	8683
2.65133	8681
2.65200	8678
2.65267	8675
2.65333	8672
2.65400	8670
2.65467	8667
2.65533	8664
2.65600	8661
2.65667	8659
2.65733	8656
2.65800	8653
2.65867	8650
2.65933	8648
2.66000	8645
2.66067	8642
2.66133	8639
2.66200	8637
2.66267	8634
2.66333	8631
2.66400	8628
2.66467	8626
2.66533	8623
2.66600	8620
2.66667	8617
2.66733	8615
2.66800	8612
2.66867	8609
2.66933	8606
2.67000	8604
2.67067	8601
2.67133	8598
2.67200	8595
2.67267	8592
2.67333	8590
2.67400	8587
2.67467	8584
2.67533	8581
2.67600	8579
2.67667	8576
2.67733	8573
2.67800	8570
2.67867	8568
2.67933	8565
2.68000	8562
2.68067	8560
2.68133	8557
2.68200	8555
2.68267	8552
2.68333	8549
2.68400	8547
2.68467	8544
2.68533	8542
2.68600	8539
2.68667	8537
2.68733	8534
2.68800	8532
2.68867	8529
2.68933	8527
2.69000	8524
2.69067	8522
2.69133	8519
2.69200	8517
2.69267	8514
2.69333	8512
2.69400	8510
2.69467	8507
2.69533	8505
2.69600	8502
2.69667	8500
2.69733	8497
2.69800	8495
2.69867	8493
2.69933	8490
2.70000	8488
2.70067	8486
2.70133	8483
2.70200	8481
2.70267	8479
2.70333	8476
2.70400	8474
2.70467	8472
2.70533	8469
2.70600	8467
2.70667	8465
2.70733	8463
2.70800	8460
2.70867	8458
2.70933	8456
2.71000	8454
2.71067	8451
2.71133	8449
2.71200	8447
2.71267	8445
2.71333	8443
2.71400	8440
2.71467	8438
2.71533	8436
2.71600	8434
2.71667	8432
2.71733	8430
2.71800	8428
2.71867	8426
2.71933	8424
2.72000	8422
2.72067	8420
2.72133	8417
2.72200	8415
2.72267	8413
2.72333	8411
2.72400	8409
2.72467	8407
2.72533	8405
2.72600	8402
2.72667	8400
2.72733	8398
2.72800	8396
2.72867	8394
2.72933	8392
2.73000	8390
2.73067	8388
2.73133	8385
2.73200	8383
2.73267	8381
2.73333	8379
2.73400	8377
2.73467	8375
2.73533	8373
2.73600	8371
2.73667	8369
2.73733	8367
2.73800	8365
2.73867	8363
2.73933	8361
2.74000	8359
2.74067	8357
2.74133	8355
2.74200	8353
2.74267	8351
2.74333	8349
2.74400	8347
2.74467	8346
2.74533	8344
2.74600	8342
2.74667	8340
2.74733	8338
2.74800	8337
2.74867	8335
2.74933	8333
2.75000	8331
2.75067	8330
2.75133	8328
2.75200	8326
2.75267	8325
2.75333	8323
2.75400	8322
2.75467	8320
2.75533	8319
2.75600	8317
2.75667	8316
2.75733	8314
2.75800	8313
2.75867	8311
2.75933	8310
2.76000	8309
2.76067	8307
2.76133	8306
2.76200	8305
2.76267	8304
2.76333	8303
2.76400	8302
2.76467	8300
2.76533	8299
2.76600	8298
2.76667	8297
2.76733	8296
2.76800	8294
2.76867	8293
2.76933	8292
2.77000	8291
2.77067	8290
2.77133	8289
2.77200	8288
2.77267	8287
2.77333	8286
2.77400	8285
2.77467	8285
2.77533	8284
2.77600	8283
2.77667	8283
2.77733	8282
2.77800	8281
2.77867	8281
2.77933	8280
2.78000	8280
2.78067	8279
2.78133	8279
2.78200	8279
2.78267	8278
2.78333	8278
2.78400	8278
2.78467	8277
2.78533	8277
2.78600	8277
2.78667	8276
2.78733	8276
2.78800	8276
2.78867	8276
2.78933	8275
2.79000	8275
2.79067	8275
2.79133	8275
2.79200	8275
2.79267	8275
2.79333	8275
2.79400	8274
2.79467	8274
2.79533	8274
2.79600	8274
2.79667	8274
2.79733	8274
2.79800	8274
2.79867	8274
2.79933	8273
2.80000	8273
2.80067	8273
2.80133	8273
2.80200	8273
2.80267	8273
2.80333	8273
2.80400	8273
2.80467	8273
2.80533	8272
2.80600	8272
2.80667	8272
2.80733	8272
2.80800	8272
2.80867	8271
2.80933	8271
2.81000	8271
2.81067	8271
2.81133	8270
2.81200	8270
2.81267	8270
2.81333	8269
2.81400	8269
2.81467	8269
2.81533	8268
2.81600	8268
2.81667	8268
2.81733	8267
2.81800	8267
2.81867	8266
2.81933	8266
2.82000	8266
2.82067	8265
2.82133	8265
2.82200	8264
2.82267	8264
2.82333	8263
2.82400	8263
2.82467	8262
2.82533	8262
2.82600	8261
2.82667	8260
2.82733	8260
2.82800	8259
2.82867	8258
2.82933	8257
2.83000	8257
2.83067	8256
2.83133	8255
2.83200	8254
2.83267	8253
2.83333	8252
2.83400	8250
2.83467	8249
2.83533	8248
2.83600	8247
2.83667	8246
2.83733	8245
2.83800	8243
2.83867	8242
2.83933	8241
2.84000	8240
2.84067	8238
2.84133	8237
2.84200	8236
2.84267	8235
2.84333	8233
2.84400	8232
2.84467	8231
2.84533	8230
2.84600	8228
2.84667	8227
2.84733	8226
2.84800	8224
2.84867	8223
2.84933	8222
2.85000	8221
2.85067	8219
2.85133	8218
2.85200	8217
2.85267	8216
2.85333	8214
2.85400	8213
2.85467	8212
2.85533	8211
2.85600	8210
2.85667	8209
2.85733	8207
2.85800	8206
2.85867	8205
2.85933	8204
2.86000	8203
2.86067	8202
2.86133	8202
2.86200	8201
2.86267	8200
2.86333	8199
2.86400	8198
2.86467	8197
2.86533	8197
2.86600	8196
2.86667	8195
2.86733	8194
2.86800	8194
2.86867	8193
2.86933	8193
2.87000	8193
2.87067	8192
2.87133	8192
2.87200	8192
2.87267	8192
2.87333	8192
2.87400	8193
2.87467	8193
2.87533	8193
2.87600	8194
2.87667	8195
2.87733	8195
2.87800	8196
2.87867	8197
2.87933	8198
2.88000	8199
2.88067	8201
2.88133	8202
2.88200	8204
2.88267	8206
2.88333	8208
2.88400	8210
2.88467	8212
2.88533	8214
2.88600	8217
2.88667	8220
2.88733	8223
2.88800	8226
2.88867	8229
2.88933	8233
2.89000	8237
2.89067	8241
2.89133	8245
2.89200	8250
2.89267	8254
2.89333	8259
2.89400	8264
2.89467	8269
2.89533	8274
2.89600	8280
2.89667	8285
2.89733	8291
2.89800	8297
2.89867	8304
2.89933	8310
2.90000	8316
2.90067	8323
2.90133	8329
2.90200	8336
2.90267	8343
2.90333	8350
2.90400	8357
2.90467	8364
2.90533	8371
2.90600	8378
2.90667	8385
2.90733	8391
2.90800	8398
2.90867	8405
2.90933	8412
2.91000	8419
2.91067	8425
2.91133	8431
2.91200	8438
2.91267	8443
2.91333	8449
2.91400	8455
2.91467	8460
2.91533	8465
2.91600	8470
2.91667	8474
2.91733	8479
2.91800	8483
2.91867	8486
2.91933	8489
2.92000	8492
2.92067	8495
2.92133	8497
2.92200	8499
2.92267	8500
2.92333	8501
2.92400	8502
2.92467	8502
2.92533	8502
2.92600	8501
2.92667	8500
2.92733	8498
2.92800	8497
2.92867	8494
2.92933	8492
2.93000	8489
2.93067	8485
2.93133	8482
2.93200	8478
2.93267	8473
2.93333	8469
2.93400	8463
2.93467	8458
2.93533	8452
2.93600	8446
2.93667	8440
2.93733	8434
2.93800	8427
2.93867	8420
2.93933	8412
2.94000	8405
2.94067	8397
2.94133	8389
2.94200	8381
2.94267	8373
2.94333	8364
2.94400	8356
2.94467	8347
2.94533	8338
2.94600	8329
2.94667	8320
2.94733	8310
2.94800	8301
2.94867	8291
2.94933	8282
2.95000	8272
2.95067	8263
2.95133	8253
2.95200	8243
2.95267	8233
2.95333	8224
2.95400	8214
2.95467	8204
2.95533	8194
2.95600	8185
2.95667	8175
2.95733	8165
2.95800	8156
2.95867	8147
2.95933	8137
2.96000	8128
2.96067	8119
2.96133	8109
2.96200	8100
2.96267	8091
2.96333	8082
2.96400	8073
2.96467	8065
2.96533	8056
2.96600	8047
2.96667	8039
2.96733	8030
2.96800	8022
2.96867	8014
2.96933	8006
2.97000	7998
2.97067	7990
2.97133	7982
2.97200	7974
2.97267	7967
2.97333	7959
2.97400	7952
2.97467	7945
2.97533	7937
2.97600	7930
2.97667	7923
2.97733	7916
2.97800	7910
2.97867	7903
2.97933	7896
2.98000	7890
2.98067	7884
2.98133	7878
2.98200	7871
2.98267	7865
2.98333	7860
2.98400	7854
2.98467	7848
2.98533	7842
2.98600	7837
2.98667	7831
2.98733	7826
2.98800	7820
2.98867	7815
2.98933	7809
2.99000	7804
2.99067	7799
2.99133	7794
2.99200	7789
2.99267	7784
2.99333	7779
2.99400	7775
2.99467	7770
2.99533	7765
2.99600	7761
2.99667	7756
2.99733	7752
2.99800	7747
2.99867	7743
2.99933	7739
3.00000	7734
3.00067	7730
3.00133	7726
3.00200	7722
3.00267	7718
3.00333	7714
3.00400	7710
3.00467	7706
3.00533	7702
3.00600	7698
3.00667	7694
3.00733	7690
3.00800	7687
3.00867	7683
3.00933	7679
3.01000	7676
3.01067	7672
3.01133	7669
3.01200	7666
3.01267	7662
3.01333	7659
3.01400	7656
3.01467	7652
3.01533	7649
3.01600	7646
3.01667	7643
3.01733	7640
3.01800	7637
3.01867	7634
3.01933	7631
3.02000	7628
3.02067	7625
3.02133	7622
3.02200	7619
3.02267	7617
3.02333	7614
3.02400	7611
3.02467	7608
3.02533	7605
3.02600	7603
3.02667	7600
3.02733	7597
3.02800	7595
3.02867	7592
3.02933	7589
3.03000	7587
3.03067	7584
3.03133	7582
3.03200	7579
3.03267	7577
3.03333	7574
3.03400	7572
3.03467	7569
3.03533	7567
3.03600	7564
3.03667	7562
3.03733	7559
3.03800	7557
3.03867	7555
3.03933	7552
3.04000	7550
3.04067	7547
3.04133	7545
3.04200	7542
3.04267	7540
3.04333	7538
3.04400	7535
3.04467	7533
3.04533	7531
3.04600	7528
3.04667	7526
3.04733	7524
3.04800	7522
3.04867	7520
3.04933	7518
3.05000	7515
3.05067	7513
3.05133	7511
3.05200	7509
3.05267	7508
3.05333	7506
3.05400	7504
3.05467	7502
3.05533	7500
3.05600	7498
3.05667	7496
3.05733	7495
3.05800	7493
3.05867	7491
3.05933	7489
3.06000	7488
3.06067	7486
3.06133	7484
3.06200	7483
3.06267	7481
3.06333	7480
3.06400	7478
3.06467	7477
3.06533	7475
3.06600	7474
3.06667	7472
3.06733	7471
3.06800	7470
3.06867	7469
3.06933	7467
3.07000	7466
3.07067	7465
3.07133	7464
3.07200	7463
3.07267	7462
3.07333	7461
3.07400	7460
3.07467	7459
3.07533	7458
3.07600	7457
3.07667	7456
3.07733	7455
3.07800	7454
3.07867	7453
3.07933	7452
3.08000	7451
3.08067	7451
3.08133	7450
3.08200	7449
3.08267	7449
3.08333	7448
3.08400	7448
3.08467	7447
3.08533	7446
3.08600	7446
3.08667	7445
3.08733	7445
3.08800	7444
3.08867	7443
3.08933	7443
3.09000	7442
3.09067	7442
3.09133	7441
3.09200	7440
3.09267	7440
3.09333	7439
3.09400	7438
3.09467	7438
3.09533	7437
3.09600	7436
3.09667	7435
3.09733	7434
3.09800	7434
3.09867	7433
3.09933	7432
3.10000	7431
3.10067	7430
3.10133	7429
3.10200	7428
3.10267	7427
3.10333	7425
3.10400	7424
3.10467	7423
3.10533	7422
3.10600	7421
3.10667	7419
3.10733	7418
3.10800	7417
3.10867	7416
3.10933	7414
3.11000	7413
3.11067	7411
3.11133	7410
3.11200	7408
3.11267	7407
3.11333	7405
3.11400	7404
3.11467	7402
3.11533	7401
3.11600	7399
3.11667	7397
3.11733	7396
3.11800	7394
3.11867	7393
3.11933	7391
3.12000	7389
3.12067	7388
3.12133	7386
3.12200	7385
3.12267	7383
3.12333	7381
3.12400	7380
3.12467	7378
3.12533	7376
3.12600	7375
3.12667	7373
3.12733	7372
3.12800	7370
3.12867	7368
3.12933	7367
3.13000	7365
3.13067	7363
3.13133	7362
3.13200	7360
3.13267	7358
3.13333	7356
3.13400	7355
3.13467	7353
3.13533	7352
3.13600	7350
3.13667	7349
3.13733	7347
3.13800	7346
3.13867	7344
3.13933	7343
3.14000	7341
3.14067	7340
3.14133	7338
3.14200	7337
3.14267	7335
3.14333	7334
3.14400	7333
3.14467	7331
3.14533	7330
3.14600	7329
3.14667	7327
3.14733	7326
3.14800	7325
3.14867	7323
3.14933	7322
3.15000	7321
3.15067	7319
3.15133	7318
3.15200	7317
3.15267	7316
3.15333	7314
3.15400	7313
3.15467	7312
3.15533	7311
3.15600	7310
3.15667	7309
3.15733	7308
3.15800	7306
3.15867	7305
3.15933	7304
3.16000	7303
3.16067	7302
3.16133	7301
3.16200	7300
3.16267	7299
3.16333	7298
3.16400	7297
3.16467	7296
3.16533	7295
3.16600	7294
3.16667	7293
3.16733	7292
3.16800	7291
3.16867	7290
3.16933	7289
3.17000	7288
3.17067	7287
3.17133	7286
3.17200	7285
3.17267	7284
3.17333	7284
3.17400	7283
3.17467	7282
3.17533	7281
3.17600	7280
3.17667	7280
3.17733	7279
3.17800	7278
3.17867	7278
3.17933	7277
3.18000	7276
3.18067	7276
3.18133	7275
3.18200	7274
3.18267	7274
3.18333	7273
3.18400	7273
3.18467	7272
3.18533	7271
3.18600	7271
3.18667	7270
3.18733	7270
3.18800	7269
3.18867	7269
3.18933	7268
3.19000	7268
3.19067	7267
3.19133	7267
3.19200	7266
3.19267	7266
3.19333	7265
3.19400	7265
3.19467	7264
3.19533	7264
3.19600	7263
3.19667	7263
3.19733	7262
3.19800	7262
3.19867	7261
3.19933	7261
3.20000	7261
3.20067	7260
3.20133	7260
3.20200	7259
3.20267	7259
3.20333	7258
3.20400	7258
3.20467	7258
3.20533	7257
3.20600	7257
3.20667	7256
3.20733	7256
3.20800	7256
3.20867	7255
3.20933	7255
3.21000	7255
3.21067	7254
3.21133	7254
3.21200	7254
3.21267	7253
3.21333	7253
3.21400	7253
3.21467	7252
3.21533	7252
3.21600	7252
3.21667	7252
3.21733	7252
3.21800	7251
3.21867	7251
3.21933	7251
3.22000	7251
3.22067	7251
3.22133	7251
3.22200	7251
3.22267	7251
3.22333	7251
3.22400	7251
3.22467	7251
3.22533	7251
3.22600	7251
3.22667	7251
3.22733	7251
3.22800	7251
3.22867	7252
3.22933	7252
3.23000	7252
3.23067	7252
3.23133	7253
3.23200	7253
3.23267	7253
3.23333	7254
3.23400	7254
3.23467	7254
3.23533	7255
3.23600	7255
3.23667	7255
3.23733	7256
3.23800	7256
3.23867	7257
3.23933	7257
3.24000	7258
3.24067	7258
3.24133	7259
3.24200	7259
3.24267	7260
3.24333	7260
3.24400	7261
3.24467	7261
3.24533	7262
3.24600	7262
3.24667	7263
3.24733	7263
3.24800	7264
3.24867	7265
3.24933	7265
3.25000	7266
3.25067	7266
3.25133	7267
3.25200	7268
3.25267	7268
3.25333	7269
3.25400	7269
3.25467	7270
3.25533	7271
3.25600	7271
3.25667	7272
3.25733	7272
3.25800	7273
3.25867	7274
3.25933	7275
3.26000	7275
3.26067	7276
3.26133	7277
3.26200	7277
3.26267	7278
3.26333	7279
3.26400	7280
3.26467	7281
3.26533	7281
3.26600	7282
3.26667	7283
3.26733	7284
3.26800	7285
3.26867	7286
3.26933	7287
3.27000	7288
3.27067	7289
3.27133	7290
3.27200	7291
3.27267	7292
3.27333	7293
3.27400	7294
3.27467	7295
3.27533	7296
3.27600	7297
3.27667	7298
3.27733	7299
3.27800	7300
3.27867	7301
3.27933	7302
3.28000	7302
3.28067	7303
3.28133	7304
3.28200	7305
3.28267	7306
3.28333	7307
3.28400	7308
3.28467	7309
3.28533	7310
3.28600	7311
3.28667	7312
3.28733	7313
3.28800	7314
3.28867	7315
3.28933	7316
3.29000	7317
3.29067	7318
3.29133	7319
3.29200	7320
3.29267	7321
3.29333	7321
3.29400	7322
3.29467	7323
3.29533	7324
3.29600	7325
3.29667	7326
3.29733	7327
3.29800	7328
3.29867	7329
3.29933	7330
3.30000	7331
3.30067	7332
3.30133	7333
3.30200	7334
3.30267	7335
3.30333	7336
3.30400	7337
3.30467	7337
3.30533	7338
3.30600	7339
3.30667	7340
3.30733	7341
3.30800	7342
3.30867	7343
3.30933	7344
3.31000	7344
3.31067	7345
3.31133	7346
3.31200	7347
3.31267	7348
3.31333	7349
3.31400	7349
3.31467	7350
3.31533	7351
3.31600	7351
3.31667	7352
3.31733	7353
3.31800	7354
3.31867	7354
3.31933	7355
3.32000	7356
3.32067	7356
3.32133	7357
3.32200	7358
3.32267	7358
3.32333	7359
3.32400	7359
3.32467	7360
3.32533	7361
3.32600	7361
3.32667	7362
3.32733	7362
3.32800	7362
3.32867	7363
3.32933	7363
3.33000	7364
3.33067	7364
3.33133	7364
3.33200	7365
3.33267	7365
3.33333	7365
3.33400	7365
3.33467	7366
3.33533	7366
3.33600	7366
3.33667	7367
3.33733	7367
3.33800	7367
3.33867	7367
3.33933	7368
3.34000	7368
3.34067	7368
3.34133	7368
3.34200	7368
3.34267	7369
3.34333	7369
3.34400	7369
3.34467	7369
3.34533	7369
3.34600	7369
3.34667	7370
3.34733	7370
3.34800	7370
3.34867	7370
3.34933	7370
3.35000	7370
3.35067	7370
3.35133	7370
3.35200	7370
3.35267	7370
3.35333	7370
3.35400	7370
3.35467	7370
3.35533	7370
3.35600	7370
3.35667	7369
3.35733	7369
3.35800	7369
3.35867	7369
3.35933	7369
3.36000	7369
3.36067	7369
3.36133	7369
3.36200	7369
3.36267	7369
3.36333	7369
3.36400	7369
3.36467	7369
3.36533	7369
3.36600	7369
3.36667	7369
3.36733	7369
3.36800	7369
3.36867	7369
3.36933	7369
3.37000	7369
3.37067	7369
3.37133	7369
3.37200	7369
3.37267	7369
3.37333	7369
3.37400	7369
3.37467	7369
3.37533	7369
3.37600	7369
3.37667	7369
3.37733	7368
3.37800	7368
3.37867	7368
3.37933	7368
3.38000	7368
3.38067	7368
3.38133	7367
3.38200	7367
3.38267	7367
3.38333	7367
3.38400	7366
3.38467	7366
3.38533	7366
3.38600	7365
3.38667	7365
3.38733	7364
3.38800	7364
3.38867	7363
3.38933	7363
3.39000	7362
3.39067	7362
3.39133	7361
3.39200	7361
3.39267	7360
3.39333	7359
3.39400	7359
3.39467	7358
3.39533	7357
3.39600	7357
3.39667	7356
3.39733	7355
3.39800	7355
3.39867	7354
3.39933	7353
3.40000	7352
3.40067	7351
3.40133	7351
3.40200	7350
3.40267	7349
3.40333	7348
3.40400	7347
3.40467	7346
3.40533	7345
3.40600	7344
3.40667	7343
3.40733	7342
3.40800	7341
3.40867	7340
3.40933	7339
3.41000	7338
3.41067	7337
3.41133	7336
3.41200	7334
3.41267	7333
3.41333	7332
3.41400	7331
3.41467	7329
3.41533	7328
3.41600	7327
3.41667	7326
3.41733	7325
3.41800	7324
3.41867	7322
3.41933	7321
3.42000	7320
3.42067	7319
3.42133	7318
3.42200	7316
3.42267	7315
3.42333	7314
3.42400	7312
3.42467	7311
3.42533	7310
3.42600	7308
3.42667	7307
3.42733	7306
3.42800	7304
3.42867	7303
3.42933	7301
3.43000	7300
3.43067	7299
3.43133	7297
3.43200	7296
3.43267	7294
3.43333	7293
3.43400	7292
3.43467	7291
3.43533	7289
3.43600	7288
3.43667	7287
3.43733	7286
3.43800	7284
3.43867	7283
3.43933	7282
3.44000	7281
3.44067	7280
3.44133	7279
3.44200	7278
3.44267	7277
3.44333	7277
3.44400	7276
3.44467	7275
3.44533	7275
3.44600	7274
3.44667	7274
3.44733	7273
3.44800	7273
3.44867	7273
3.44933	7272
3.45000	7272
3.45067	7272
3.45133	7272
3.45200	7272
3.45267	7271
3.45333	7271
3.45400	7271
3.45467	7271
3.45533	7272
3.45600	7272
3.45667	7272
3.45733	7272
3.45800	7272
3.45867	7273
3.45933	7273
3.46000	7274
3.46067	7274
3.46133	7275
3.46200	7275
3.46267	7276
3.46333	7277
3.46400	7277
3.46467	7278
3.46533	7279
3.46600	7280
3.46667	7281
3.46733	7282
3.46800	7284
3.46867	7285
3.46933	7286
3.47000	7287
3.47067	7289
3.47133	7290
3.47200	7292
3.47267	7294
3.47333	7295
3.47400	7297
3.47467	7299
3.47533	7301
3.47600	7303
3.47667	7305
3.47733	7307
3.47800	7309
3.47867	7311
3.47933	7313
3.48000	7316
3.48067	7318
3.48133	7320
3.48200	7323
3.48267	7325
3.48333	7328
3.48400	7330
3.48467	7333
3.48533	7336
3.48600	7338
3.48667	7341
3.48733	7344
3.48800	7347
3.48867	7350
3.48933	7353
3.49000	7356
3.49067	7359
3.49133	7362
3.49200	7366
3.49267	7369
3.49333	7373
3.49400	7377
3.49467	7381
3.49533	7385
3.49600	7389
3.49667	7394
3.49733	7398
3.49800	7403
3.49867	7408
3.49933	7414
3.50000	7419
3.50067	7425
3.50133	7431
3.50200	7438
3.50267	7445
3.50333	7452
3.50400	7460
3.50467	7468
3.50533	7476
3.50600	7485
3.50667	7494
3.50733	7504
3.50800	7514
3.50867	7524
3.50933	7535
3.51000	7547
3.51067	7559
3.51133	7572
3.51200	7586
3.51267	7600
3.51333	7615
3.51400	7631
3.51467	7647
3.51533	7664
3.51600	7682
3.51667	7701
3.51733	7721
3.51800	7741
3.51867	7763
3.51933	7785
3.52000	7808
3.52067	7833
3.52133	7858
3.52200	7884
3.52267	7912
3.52333	7940
3.52400	7970
3.52467	8001
3.52533	8033
3.52600	8066
3.52667	8100
3.52733	8136
3.52800	8172
3.52867	8211
3.52933	8250
3.53000	8290
3.53067	8332
3.53133	8375
3.53200	8420
3.53267	8465
3.53333	8512
3.53400	8561
3.53467	8610
3.53533	8661
3.53600	8714
3.53667	8768
3.53733	8823
3.53800	8879
3.53867	8937
3.53933	8996
3.54000	9057
3.54067	9118
3.54133	9181
3.54200	9246
3.54267	9311
3.54333	9378
3.54400	9446
3.54467	9516
3.54533	9586
3.54600	9658
3.54667	9731
3.54733	9805
3.54800	9880
3.54867	9956
3.54933	10034
3.55000	10112
3.55067	10192
3.55133	10272
3.55200	10353
3.55267	10436
3.55333	10519
3.55400	10603
3.55467	10687
3.55533	10773
3.55600	10859
3.55667	10946
3.55733	11034
3.55800	11123
3.55867	11212
3.55933	11302
3.56000	11393
3.56067	11484
3.56133	11576
3.56200	11669
3.56267	11762
3.56333	11857
3.56400	11952
3.56467	12047
3.56533	12144
3.56600	12241
3.56667	12339
3.56733	12437
3.56800	12537
3.56867	12637
3.56933	12739
3.57000	12841
3.57067	12944
3.57133	13049
3.57200	13154
3.57267	13261
3.57333	13369
3.57400	13478
3.57467	13589
3.57533	13701
3.57600	13815
3.57667	13930
3.57733	14046
3.57800	14165
3.57867	14285
3.57933	14407
3.58000	14531
3.58067	14657
3.58133	14785
3.58200	14915
3.58267	15047
3.58333	15182
3.58400	15318
3.58467	15457
3.58533	15597
3.58600	15740
3.58667	15886
3.58733	16033
3.58800	16183
3.58867	16336
3.58933	16491
3.59000	16648
3.59067	16807
3.59133	16969
3.59200	17133
3.59267	17300
3.59333	17469
3.59400	17639
3.59467	17813
3.59533	17988
3.59600	18165
3.59667	18344
3.59733	18525
3.59800	18707
3.59867	18892
3.59933	19077
3.60000	19265
3.60067	19454
3.60133	19644
3.60200	19835
3.60267	20027
3.60333	20221
3.60400	20415
3.60467	20610
3.60533	20805
3.60600	21001
3.60667	21198
3.60733	21395
3.60800	21591
3.60867	21788
3.60933	21985
3.61000	22181
3.61067	22377
3.61133	22571
3.61200	22765
3.61267	22956
3.61333	23147
3.61400	23335
3.61467	23521
3.61533	23705
3.61600	23886
3.61667	24063
3.61733	24238
3.61800	24408
3.61867	24575
3.61933	24738
3.62000	24897
3.62067	25051
3.62133	25200
3.62200	25345
3.62267	25485
3.62333	25619
3.62400	25748
3.62467	25872
3.62533	25990
3.62600	26102
3.62667	26208
3.62733	26308
3.62800	26402
3.62867	26489
3.62933	26569
3.63000	26644
3.63067	26711
3.63133	26772
3.63200	26825
3.63267	26872
3.63333	26912
3.63400	26945
3.63467	26971
3.63533	26990
3.63600	27002
3.63667	27008
3.63733	27006
3.63800	26998
3.63867	26983
3.63933	26961
3.64000	26932
3.64067	26897
3.64133	26855
3.64200	26807
3.64267	26752
3.64333	26691
3.64400	26623
3.64467	26549
3.64533	26469
3.64600	26383
3.64667	26291
3.64733	26193
3.64800	26090
3.64867	25981
3.64933	25867
3.65000	25748
3.65067	25624
3.65133	25495
3.65200	25362
3.65267	25224
3.65333	25081
3.65400	24935
3.65467	24784
3.65533	24630
3.65600	24473
3.65667	24312
3.65733	24147
3.65800	23980
3.65867	23810
3.65933	23638
3.66000	23462
3.66067	23285
3.66133	23105
3.66200	22924
3.66267	22741
3.66333	22556
3.66400	22370
3.66467	22182
3.66533	21994
3.66600	21805
3.66667	21615
3.66733	21424
3.66800	21233
3.66867	21042
3.66933	20851
3.67000	20659
3.67067	20468
3.67133	20277
3.67200	20087
3.67267	19897
3.67333	19707
3.67400	19518
3.67467	19330
3.67533	19143
3.67600	18957
3.67667	18772
3.67733	18588
3.67800	18405
3.67867	18224
3.67933	18044
3.68000	17866
3.68067	17689
3.68133	17513
3.68200	17339
3.68267	17167
3.68333	16997
3.68400	16828
3.68467	16662
3.68533	16497
3.68600	16334
3.68667	16172
3.68733	16013
3.68800	15856
3.68867	15701
3.68933	15548
3.69000	15397
3.69067	15247
3.69133	15101
3.69200	14956
3.69267	14813
3.69333	14672
3.69400	14534
3.69467	14397
3.69533	14263
3.69600	14130
3.69667	14000
3.69733	13872
3.69800	13746
3.69867	13622
3.69933	13500
3.70000	13380
3.70067	13262
3.70133	13146
3.70200	13032
3.70267	12920
3.70333	12810
3.70400	12702
3.70467	12596
3.70533	12492
3.70600	12389
3.70667	12289
3.70733	12190
3.70800	12094
3.70867	11999
3.70933	11906
3.71000	11814
3.71067	11725
3.71133	11637
3.71200	11551
3.71267	11467
3.71333	11384
3.71400	11303
3.71467	11224
3.71533	11146
3.71600	11070
3.71667	10995
3.71733	10922
3.71800	10851
3.71867	10780
3.71933	10712
3.72000	10644
3.72067	10578
3.72133	10514
3.72200	10450
3.72267	10388
3.72333	10327
3.72400	10268
3.72467	10209
3.72533	10152
3.72600	10096
3.72667	10041
3.72733	9987
3.72800	9935
3.72867	9883
3.72933	9833
3.73000	9783
3.73067	9735
3.73133	9687
3.73200	9641
3.73267	9596
3.73333	9551
3.73400	9507
3.73467	9465
3.73533	9423
3.73600	9382
3.73667	9342
3.73733	9302
3.73800	9264
3.73867	9226
3.73933	9189
3.74000	9153
3.74067	9117
3.74133	9083
3.74200	9048
3.74267	9015
3.74333	8982
3.74400	8950
3.74467	8919
3.74533	8888
3.74600	8858
3.74667	8829
3.74733	8800
3.74800	8771
3.74867	8744
3.74933	8717
3.75000	8690
3.75067	8664
3.75133	8638
3.75200	8613
3.75267	8589
3.75333	8564
3.75400	8541
3.75467	8517
3.75533	8495
3.75600	8472
3.75667	8450
3.75733	8429
3.75800	8408
3.75867	8387
3.75933	8366
3.76000	8346
3.76067	8327
3.76133	8307
3.76200	8288
3.76267	8270
3.76333	8251
3.76400	8233
3.76467	8216
3.76533	8198
3.76600	8181
3.76667	8165
3.76733	8148
3.76800	8132
3.76867	8116
3.76933	8100
3.77000	8085
3.77067	8070
3.77133	8055
3.77200	8040
3.77267	8026
3.77333	8012
3.77400	7998
3.77467	7984
3.77533	7970
3.77600	7957
3.77667	7944
3.77733	7931
3.77800	7918
3.77867	7906
3.77933	7894
3.78000	7882
3.78067	7870
3.78133	7858
3.78200	7846
3.78267	7835
3.78333	7824
3.78400	7812
3.78467	7802
3.78533	7791
3.78600	7780
3.78667	7770
3.78733	7759
3.78800	7749
3.78867	7739
3.78933	7729
3.79000	7719
3.79067	7709
3.79133	7700
3.79200	7690
3.79267	7681
3.79333	7672
3.79400	7663
3.79467	7654
3.79533	7645
3.79600	7636
3.79667	7628
3.79733	7619
3.79800	7611
3.79867	7603
3.79933	7595
3.80000	7587
3.80067	7579
3.80133	7571
3.80200	7563
3.80267	7555
3.80333	7547
3.80400	7540
3.80467	7532
3.80533	7525
3.80600	7517
3.80667	7510
3.80733	7503
3.80800	7495
3.80867	7488
3.80933	7481
3.81000	7474
3.81067	7467
3.81133	7460
3.81200	7453
3.81267	7446
3.81333	7440
3.81400	7433
3.81467	7426
3.81533	7420
3.81600	7413
3.81667	7407
3.81733	7401
3.81800	7394
3.81867	7388
3.81933	7382
3.82000	7376
3.82067	7370
3.82133	7364
3.82200	7359
3.82267	7353
3.82333	7347
3.82400	7342
3.82467	7336
3.82533	7331
3.82600	7325
3.82667	7320
3.82733	7315
3.82800	7309
3.82867	7304
3.82933	7299
3.83000	7294
3.83067	7289
3.83133	7284
3.83200	7279
3.83267	7274
3.83333	7269
3.83400	7264
3.83467	7260
3.83533	7255
3.83600	7251
3.83667	7246
3.83733	7241
3.83800	7237
3.83867	7233
3.83933	7228
3.84000	7224
3.84067	7219
3.84133	7215
3.84200	7211
3.84267	7207
3.84333	7202
3.84400	7198
3.84467	7194
3.84533	7190
3.84600	7186
3.84667	7182
3.84733	7178
3.84800	7174
3.84867	7170
3.84933	7166
3.85000	7162
3.85067	7158
3.85133	7154
3.85200	7150
3.85267	7146
3.85333	7142
3.85400	7138
3.85467	7134
3.85533	7131
3.85600	7127
3.85667	7123
3.85733	7119
3.85800	7116
3.85867	7112
3.85933	7108
3.86000	7104
3.86067	7101
3.86133	7097
3.86200	7094
3.86267	7090
3.86333	7087
3.86400	7083
3.86467	7080
3.86533	7076
3.86600	7073
3.86667	7070
3.86733	7067
3.86800	7063
3.86867	7060
3.86933	7057
3.87000	7054
3.87067	7050
3.87133	7047
3.87200	7044
3.87267	7040
3.87333	7037
3.87400	7034
3.87467	7031
3.87533	7027
3.87600	7024
3.87667	7021
3.87733	7017
3.87800	7014
3.87867	7011
3.87933	7007
3.88000	7004
3.88067	7001
3.88133	6997
3.88200	6994
3.88267	6991
3.88333	6988
3.88400	6984
3.88467	6981
3.88533	6978
3.88600	6974
3.88667	6971
3.88733	6968
3.88800	6965
3.88867	6961
3.88933	6958
3.89000	6955
3.89067	6952
3.89133	6949
3.89200	6946
3.89267	6943
3.89333	6940
3.89400	6937
3.89467	6934
3.89533	6931
3.89600	6928
3.89667	6925
3.89733	6922
3.89800	6919
3.89867	6916
3.89933	6913
3.90000	6910
3.90067	6907
3.90133	6904
3.90200	6901
3.90267	6899
3.90333	6896
3.90400	6893
3.90467	6890
3.90533	6888
3.90600	6885
3.90667	6882
3.90733	6880
3.90800	6877
3.90867	6875
3.90933	6872
3.91000	6869
3.91067	6867
3.91133	6864
3.91200	6861
3.91267	6859
3.91333	6856
3.91400	6854
3.91467	6851
3.91533	6849
3.91600	6847
3.91667	6844
3.91733	6841
3.91800	6839
3.91867	6836
3.91933	6834
3.92000	6831
3.92067	6829
3.92133	6826
3.92200	6824
3.92267	6822
3.92333	6819
3.92400	6817
3.92467	6815
3.92533	6812
3.92600	6810
3.92667	6808
3.92733	6806
3.92800	6803
3.92867	6801
3.92933	6799
3.93000	6797
3.93067	6795
3.93133	6793
3.93200	6790
3.93267	6788
3.93333	6786
3.93400	6784
3.93467	6782
3.93533	6780
3.93600	6778
3.93667	6776
3.93733	6775
3.93800	6773
3.93867	6771
3.93933	6769
3.94000	6767
3.94067	6765
3.94133	6763
3.94200	6761
3.94267	6759
3.94333	6758
3.94400	6756
3.94467	6754
3.94533	6752
3.94600	6750
3.94667	6748
3.94733	6747
3.94800	6745
3.94867	6743
3.94933	6741
3.95000	6739
3.95067	6737
3.95133	6736
3.95200	6734
3.95267	6732
3.95333	6730
3.95400	6728
3.95467	6726
3.95533	6724
3.95600	6722
3.95667	6721
3.95733	6719
3.95800	6717
3.95867	6715
3.95933	6713
3.96000	6711
3.96067	6709
3.96133	6708
3.96200	6706
3.96267	6704
3.96333	6702
3.96400	6701
3.96467	6699
3.96533	6697
3.96600	6695
3.96667	6694
3.96733	6692
3.96800	6690
3.96867	6688
3.96933	6687
3.97000	6685
3.97067	6683
3.97133	6682
3.97200	6680
3.97267	6679
3.97333	6677
3.97400	6676
3.97467	6674
3.97533	6672
3.97600	6671
3.97667	6669
3.97733	6668
3.97800	6666
3.97867	6665
3.97933	6663
3.98000	6662
3.98067	6661
3.98133	6659
3.98200	6658
3.98267	6656
3.98333	6655
3.98400	6654
3.98467	6652
3.98533	6651
3.98600	6650
3.98667	6649
3.98733	6647
3.98800	6646
3.98867	6645
3.98933	6644
3.99000	6642
3.99067	6641
3.99133	6640
3.99200	6639
3.99267	6638
3.99333	6637
3.99400	6636
3.99467	6635
3.99533	6634
3.99600	6633
3.99667	6632
3.99733	6631
3.99800	6630
3.99867	6629
3.99933	6628
4.00000	6627
4.00067	6626
4.00133	6625
4.00200	6625
4.00267	6624
4.00333	6623
4.00400	6622
4.00467	6621
4.00533	6620
4.00600	6619
4.00667	6619
4.00733	6618
4.00800	6617
4.00867	6616
4.00933	6616
4.01000	6615
4.01067	6614
4.01133	6613
4.01200	6613
4.01267	6612
4.01333	6611
4.01400	6611
4.01467	6610
4.01533	6609
4.01600	6609
4.01667	6608
4.01733	6608
4.01800	6607
4.01867	6607
4.01933	6606
4.02000	6606
4.02067	6606
4.02133	6605
4.02200	6605
4.02267	6605
4.02333	6604
4.02400	6604
4.02467	6603
4.02533	6603
4.02600	6603
4.02667	6602
4.02733	6602
4.02800	6601
4.02867	6601
4.02933	6600
4.03000	6600
4.03067	6599
4.03133	6599
4.03200	6598
4.03267	6598
4.03333	6597
4.03400	6597
4.03467	6596
4.03533	6596
4.03600	6595
4.03667	6595
4.03733	6594
4.03800	6594
4.03867	6593
4.03933	6593
4.04000	6592
4.04067	6592
4.04133	6591
4.04200	6591
4.04267	6590
4.04333	6590
4.04400	6589
4.04467	6589
4.04533	6589
4.04600	6588
4.04667	6588
4.04733	6587
4.04800	6587
4.04867	6587
4.04933	6586
4.05000	6586
4.05067	6586
4.05133	6586
4.05200	6585
4.05267	6585
4.05333	6585
4.05400	6586
4.05467	6586
4.05533	6586
4.05600	6586
4.05667	6587
4.05733	6587
4.05800	6587
4.05867	6588
4.05933	6588
4.06000	6589
4.06067	6589
4.06133	6590
4.06200	6591
4.06267	6591
4.06333	6592
4.06400	6593
4.06467	6594
4.06533	6595
4.06600	6596
4.06667	6597
4.06733	6598
4.06800	6599
4.06867	6600
4.06933	6601
4.07000	6603
4.07067	6604
4.07133	6605
4.07200	6607
4.07267	6609
4.07333	6610
4.07400	6612
4.07467	6614
4.07533	6616
4.07600	6618
4.07667	6621
4.07733	6623
4.07800	6626
4.07867	6628
4.07933	6631
4.08000	6634
4.08067	6637
4.08133	6640
4.08200	6643
4.08267	6646
4.08333	6649
4.08400	6653
4.08467	6656
4.08533	6660
4.08600	6663
4.08667	6667
4.08733	6671
4.08800	6675
4.08867	6679
4.08933	6684
4.09000	6688
4.09067	6693
4.09133	6697
4.09200	6702
4.09267	6707
4.09333	6712
4.09400	6717
4.09467	6722
4.09533	6728
4.09600	6733
4.09667	6739
4.09733	6745
4.09800	6751
4.09867	6757
4.09933	6763
4.10000	6769
4.10067	6776
4.10133	6782
4.10200	6789
4.10267	6795
4.10333	6802
4.10400	6809
4.10467	6816
4.10533	6823
4.10600	6830
4.10667	6837
4.10733	6844
4.10800	6851
4.10867	6859
4.10933	6866
4.11000	6874
4.11067	6881
4.11133	6889
4.11200	6897
4.11267	6904
4.11333	6912
4.11400	6920
4.11467	6928
4.11533	6936
4.11600	6944
4.11667	6952
4.11733	6960
4.11800	6968
4.11867	6976
4.11933	6985
4.12000	6993
4.12067	7001
4.12133	7009
4.12200	7018
4.12267	7026
4.12333	7034
4.12400	7042
4.12467	7050
4.12533	7059
4.12600	7067
4.12667	7075
4.12733	7083
4.12800	7091
4.12867	7099
4.12933	7107
4.13000	7115
4.13067	7123
4.13133	7131
4.13200	7139
4.13267	7147
4.13333	7154
4.13400	7162
4.13467	7169
4.13533	7177
4.13600	7184
4.13667	7192
4.13733	7199
4.13800	7206
4.13867	7213
4.13933	7220
4.14000	7227
4.14067	7234
4.14133	7241
4.14200	7248
4.14267	7254
4.14333	7261
4.14400	7267
4.14467	7274
4.14533	7280
4.14600	7286
4.14667	7292
4.14733	7298
4.14800	7304
4.14867	7310
4.14933	7316
4.15000	7322
4.15067	7327
4.15133	7333
4.15200	7338
4.15267	7343
4.15333	7348
4.15400	7353
4.15467	7358
4.15533	7363
4.15600	7368
4.15667	7373
4.15733	7378
4.15800	7382
4.15867	7387
4.15933	7391
4.16000	7396
4.16067	7400
4.16133	7404
4.16200	7409
4.16267	7413
4.16333	7417
4.16400	7422
4.16467	7426
4.16533	7430
4.16600	7434
4.16667	7439
4.16733	7443
4.16800	7448
4.16867	7452
4.16933	7457
4.17000	7462
4.17067	7466
4.17133	7471
4.17200	7476
4.17267	7482
4.17333	7487
4.17400	7493
4.17467	7499
4.17533	7505
4.17600	7511
4.17667	7517
4.17733	7524
4.17800	7531
4.17867	7538
4.17933	7546
4.18000	7554
4.18067	7562
4.18133	7570
4.18200	7579
4.18267	7588
4.18333	7598
4.18400	7608
4.18467	7619
4.18533	7629
4.18600	7641
4.18667	7653
4.18733	7665
4.18800	7678
4.18867	7692
4.18933	7706
4.19000	7721
4.19067	7737
4.19133	7753
4.19200	7770
4.19267	7788
4.19333	7807
4.19400	7826
4.19467	7847
4.19533	7868
4.19600	7891
4.19667	7915
4.19733	7939
4.19800	7965
4.19867	7992
4.19933	8021
4.20000	8050
4.20067	8081
4.20133	8114
4.20200	8148
4.20267	8184
4.20333	8221
4.20400	8260
4.20467	8301
4.20533	8344
4.20600	8388
4.20667	8435
4.20733	8484
4.20800	8535
4.20867	8588
4.20933	8644
4.21000	8702
4.21067	8763
4.21133	8827
4.21200	8893
4.21267	8962
4.21333	9034
4.21400	9109
4.21467	9187
4.21533	9268
4.21600	9353
4.21667	9441
4.21733	9533
4.21800	9628
4.21867	9727
4.21933	9830
4.22000	9937
4.22067	10049
4.22133	10164
4.22200	10284
4.22267	10409
4.22333	10539
4.22400	10673
4.22467	10813
4.22533	10958
4.22600	11108
4.22667	11263
4.22733	11424
4.22800	11591
4.22867	11763
4.22933	11941
4.23000	12125
4.23067	12315
4.23133	12512
4.23200	12714
4.23267	12922
4.23333	13138
4.23400	13359
4.23467	13587
4.23533	13822
4.23600	14065
4.23667	14314
4.23733	14570
4.23800	14834
4.23867	15105
4.23933	15383
4.24000	15669
4.24067	15963
4.24133	16265
4.24200	16574
4.24267	16892
4.24333	17218
4.24400	17552
4.24467	17895
4.24533	18246
4.24600	18605
4.24667	18973
4.24733	19350
4.24800	19735
4.24867	20128
4.24933	20531
4.25000	20942
4.25067	21362
4.25133	21792
4.25200	22230
4.25267	22678
4.25333	23134
4.25400	23600
4.25467	24075
4.25533	24559
4.25600	25052
4.25667	25554
4.25733	26065
4.25800	26584
4.25867	27112
4.25933	27649
4.26000	28194
4.26067	28747
4.26133	29308
4.26200	29877
4.26267	30454
4.26333	31038
4.26400	31630
4.26467	32230
4.26533	32837
4.26600	33451
4.26667	34073
4.26733	34701
4.26800	35336
4.26867	35977
4.26933	36625
4.27000	37279
4.27067	37939
4.27133	38604
4.27200	39275
4.27267	39951
4.27333	40632
4.27400	41317
4.27467	42007
4.27533	42702
4.27600	43400
4.27667	44103
4.27733	44808
4.27800	45517
4.27867	46229
4.27933	46944
4.28000	47661
4.28067	48380
4.28133	49101
4.28200	49824
4.28267	50548
4.28333	51274
4.28400	52001
4.28467	52729
4.28533	53457
4.28600	54186
4.28667	54915
4.28733	55643
4.28800	56371
4.28867	57097
4.28933	57822
4.29000	58544
4.29067	59264
4.29133	59981
4.29200	60695
4.29267	61404
4.29333	62110
4.29400	62811
4.29467	63506
4.29533	64196
4.29600	64880
4.29667	65558
4.29733	66228
4.29800	66890
4.29867	67545
4.29933	68191
4.30000	68830
4.30067	69460
4.30133	70082
4.30200	70695
4.30267	71299
4.30333	71894
4.30400	72481
4.30467	73058
4.30533	73625
4.30600	74183
4.30667	74731
4.30733	75269
4.30800	75797
4.30867	76314
4.30933	76821
4.31000	77316
4.31067	77800
4.31133	78273
4.31200	78733
4.31267	79181
4.31333	79617
4.31400	80041
4.31467	80452
4.31533	80850
4.31600	81235
4.31667	81607
4.31733	81966
4.31800	82312
4.31867	82645
4.31933	82965
4.32000	83272
4.32067	83566
4.32133	83848
4.32200	84117
4.32267	84373
4.32333	84616
4.32400	84846
4.32467	85064
4.32533	85270
4.32600	85462
4.32667	85643
4.32733	85810
4.32800	85964
4.32867	86106
4.32933	86236
4.33000	86353
4.33067	86458
4.33133	86550
4.33200	86631
4.33267	86699
4.33333	86756
4.33400	86801
4.33467	86834
4.33533	86856
4.33600	86866
4.33667	86865
4.33733	86852
4.33800	86827
4.33867	86791
4.33933	86744
4.34000	86684
4.34067	86613
4.34133	86530
4.34200	86436
4.34267	86331
4.34333	86214
4.34400	86086
4.34467	85947
4.34533	85798
4.34600	85638
4.34667	85468
4.34733	85288
4.34800	85099
4.34867	84900
4.34933	84691
4.35000	84473
4.35067	84247
4.35133	84011
4.35200	83766
4.35267	83513
4.35333	83251
4.35400	82980
4.35467	82701
4.35533	82414
4.35600	82119
4.35667	81815
4.35733	81504
4.35800	81185
4.35867	80858
4.35933	80524
4.36000	80182
4.36067	79833
4.36133	79477
4.36200	79115
4.36267	78745
4.36333	78369
4.36400	77986
4.36467	77598
4.36533	77203
4.36600	76801
4.36667	76395
4.36733	75982
4.36800	75564
4.36867	75140
4.36933	74712
4.37000	74278
4.37067	73840
4.37133	73397
4.37200	72950
4.37267	72499
4.37333	72043
4.37400	71584
4.37467	71121
4.37533	70655
4.37600	70185
4.37667	69712
4.37733	69236
4.37800	68757
4.37867	68275
4.37933	67791
4.38000	67304
4.38067	66814
4.38133	66323
4.38200	65830
4.38267	65335
4.38333	64839
4.38400	64342
4.38467	63844
4.38533	63345
4.38600	62846
4.38667	62346
4.38733	61847
4.38800	61348
4.38867	60849
4.38933	60350
4.39000	59852
4.39067	59354
4.39133	58857
4.39200	58361
4.39267	57866
4.39333	57372
4.39400	56879
4.39467	56387
4.39533	55897
4.39600	55409
4.39667	54922
4.39733	54438
4.39800	53956
4.39867	53475
4.39933	52998
4.40000	52522
4.40067	52050
4.40133	51580
4.40200	51112
4.40267	50648
4.40333	50187
4.40400	49729
4.40467	49275
4.40533	48824
4.40600	48376
4.40667	47933
4.40733	47493
4.40800	47057
4.40867	46625
4.40933	46197
4.41000	45774
4.41067	45355
4.41133	44940
4.41200	44529
4.41267	44122
4.41333	43720
4.41400	43322
4.41467	42929
4.41533	42539
4.41600	42155
4.41667	41774
4.41733	41398
4.41800	41026
4.41867	40659
4.41933	40296
4.42000	39938
4.42067	39584
4.42133	39234
4.42200	38890
4.42267	38549
4.42333	38214
4.42400	37882
4.42467	37556
4.42533	37234
4.42600	36916
4.42667	36603
4.42733	36294
4.42800	35990
4.42867	35690
4.42933	35394
4.43000	35103
4.43067	34816
4.43133	34533
4.43200	34255
4.43267	33980
4.43333	33710
4.43400	33444
4.43467	33181
4.43533	32923
4.43600	32669
4.43667	32418
4.43733	32171
4.43800	31928
4.43867	31689
4.43933	31453
4.44000	31221
4.44067	30993
4.44133	30768
4.44200	30547
4.44267	30330
4.44333	30116
4.44400	29906
4.44467	29699
4.44533	29495
4.44600	29296
4.44667	29099
4.44733	28906
4.44800	28717
4.44867	28531
4.44933	28348
4.45000	28168
4.45067	27992
4.45133	27819
4.45200	27650
4.45267	27483
4.45333	27320
4.45400	27160
4.45467	27004
4.45533	26850
4.45600	26700
4.45667	26552
4.45733	26408
4.45800	26266
4.45867	26127
4.45933	25991
4.46000	25858
4.46067	25727
4.46133	25599
4.46200	25473
4.46267	25350
4.46333	25230
4.46400	25112
4.46467	24997
4.46533	24884
4.46600	24774
4.46667	24666
4.46733	24560
4.46800	24456
4.46867	24355
4.46933	24255
4.47000	24158
4.47067	24063
4.47133	23970
4.47200	23879
4.47267	23790
4.47333	23703
4.47400	23618
4.47467	23535
4.47533	23454
4.47600	23375
4.47667	23298
4.47733	23222
4.47800	23148
4.47867	23076
4.47933	23006
4.48000	22936
4.48067	22869
4.48133	22803
4.48200	22739
4.48267	22676
4.48333	22615
4.48400	22556
4.48467	22498
4.48533	22442
4.48600	22387
4.48667	22333
4.48733	22281
4.48800	22231
4.48867	22181
4.48933	22133
4.49000	22087
4.49067	22042
4.49133	21998
4.49200	21955
4.49267	21914
4.49333	21874
4.49400	21835
4.49467	21797
4.49533	21761
4.49600	21725
4.49667	21691
4.49733	21658
4.49800	21626
4.49867	21595
4.49933	21565
4.50000	21536
4.50067	21508
4.50133	21481
4.50200	21455
4.50267	21429
4.50333	21404
4.50400	21381
4.50467	21357
4.50533	21335
4.50600	21313
4.50667	21292
4.50733	21272
4.50800	21252
4.50867	21233
4.50933	21214
4.51000	21196
4.51067	21178
4.51133	21160
4.51200	21143
4.51267	21126
4.51333	21109
4.51400	21093
4.51467	21076
4.51533	21060
4.51600	21045
4.51667	21029
4.51733	21014
4.51800	20998
4.51867	20983
4.51933	20969
4.52000	20954
4.52067	20940
4.52133	20925
4.52200	20911
4.52267	20898
4.52333	20884
4.52400	20870
4.52467	20857
4.52533	20844
4.52600	20831
4.52667	20818
4.52733	20806
4.52800	20793
4.52867	20781
4.52933	20769
4.53000	20757
4.53067	20745
4.53133	20734
4.53200	20722
4.53267	20711
4.53333	20700
4.53400	20689
4.53467	20678
4.53533	20667
4.53600	20656
4.53667	20646
4.53733	20636
4.53800	20626
4.53867	20616
4.53933	20607
4.54000	20598
4.54067	20589
4.54133	20580
4.54200	20572
4.54267	20564
4.54333	20557
4.54400	20549
4.54467	20542
4.54533	20536
4.54600	20530
4.54667	20524
4.54733	20519
4.54800	20514
4.54867	20509
4.54933	20505
4.55000	20501
4.55067	20498
4.55133	20495
4.55200	20492
4.55267	20490
4.55333	20488
4.55400	20487
4.55467	20486
4.55533	20486
4.55600	20485
4.55667	20486
4.55733	20486
4.55800	20487
4.55867	20489
4.55933	20490
4.56000	20492
4.56067	20495
4.56133	20497
4.56200	20500
4.56267	20504
4.56333	20508
4.56400	20512
4.56467	20516
4.56533	20521
4.56600	20526
4.56667	20532
4.56733	20538
4.56800	20544
4.56867	20551
4.56933	20557
4.57000	20565
4.57067	20572
4.57133	20580
4.57200	20588
4.57267	20597
4.57333	20605
4.57400	20615
4.57467	20624
4.57533	20634
4.57600	20644
4.57667	20654
4.57733	20665
4.57800	20675
4.57867	20686
4.57933	20698
4.58000	20709
4.58067	20720
4.58133	20732
4.58200	20743
4.58267	20755
4.58333	20767
4.58400	20779
4.58467	20791
4.58533	20803
4.58600	20815
4.58667	20827
4.58733	20839
4.58800	20851
4.58867	20862
4.58933	20874
4.59000	20885
4.59067	20896
4.59133	20907
4.59200	20917
4.59267	20927
4.59333	20937
4.59400	20947
4.59467	20956
4.59533	20964
4.59600	20972
4.59667	20980
4.59733	20987
4.59800	20993
4.59867	20999
4.59933	21005
4.60000	21010
4.60067	21014
4.60133	21018
4.60200	21021
4.60267	21024
4.60333	21026
4.60400	21027
4.60467	21027
4.60533	21027
4.60600	21026
4.60667	21024
4.60733	21022
4.60800	21018
4.60867	21014
4.60933	21010
4.61000	21004
4.61067	20998
4.61133	20991
4.61200	20983
4.61267	20974
4.61333	20964
4.61400	20954
4.61467	20943
4.61533	20931
4.61600	20917
4.61667	20904
4.61733	20889
4.61800	20873
4.61867	20856
4.61933	20838
4.62000	20820
4.62067	20800
4.62133	20779
4.62200	20758
4.62267	20735
4.62333	20711
4.62400	20687
4.62467	20661
4.62533	20634
4.62600	20607
4.62667	20578
4.62733	20549
4.62800	20519
4.62867	20487
4.62933	20455
4.63000	20423
4.63067	20389
4.63133	20355
4.63200	20319
4.63267	20283
4.63333	20247
4.63400	20209
4.63467	20172
4.63533	20133
4.63600	20094
4.63667	20054
4.63733	20013
4.63800	19972
4.63867	19931
4.63933	19889
4.64000	19846
4.64067	19803
4.64133	19759
4.64200	19715
4.64267	19670
4.64333	19624
4.64400	19579
4.64467	19533
4.64533	19486
4.64600	19439
4.64667	19392
4.64733	19344
4.64800	19296
4.64867	19248
4.64933	19200
4.65000	19151
4.65067	19102
4.65133	19053
4.65200	19004
4.65267	18954
4.65333	18905
4.65400	18855
4.65467	18805
4.65533	18755
4.65600	18706
4.65667	18656
4.65733	18606
4.65800	18556
4.65867	18507
4.65933	18457
4.66000	18407
4.66067	18358
4.66133	18309
4.66200	18259
4.66267	18210
4.66333	18161
4.66400	18112
4.66467	18064
4.66533	18015
4.66600	17967
4.66667	17918
4.66733	17870
4.66800	17823
4.66867	17775
4.66933	17728
4.67000	17681
4.67067	17634
4.67133	17587
4.67200	17541
4.67267	17495
4.67333	17450
4.67400	17404
4.67467	17359
4.67533	17314
4.67600	17270
4.67667	17225
4.67733	17181
4.67800	17137
4.67867	17094
4.67933	17051
4.68000	17008
4.68067	16965
4.68133	16922
4.68200	16880
4.68267	16838
4.68333	16796
4.68400	16755
4.68467	16714
4.68533	16674
4.68600	16633
4.68667	16594
4.68733	16554
4.68800	16515
4.68867	16477
4.68933	16438
4.69000	16401
4.69067	16363
4.69133	16326
4.69200	16290
4.69267	16253
4.69333	16217
4.69400	16182
4.69467	16146
4.69533	16111
4.69600	16077
4.69667	16042
4.69733	16008
4.69800	15974
4.69867	15941
4.69933	15908
4.70000	15875
4.70067	15842
4.70133	15810
4.70200	15778
4.70267	15747
4.70333	15716
4.70400	15685
4.70467	15654
4.70533	15623
4.70600	15593
4.70667	15563
4.70733	15533
4.70800	15503
4.70867	15474
4.70933	15445
4.71000	15416
4.71067	15387
4.71133	15358
4.71200	15329
4.71267	15301
4.71333	15273
4.71400	15245
4.71467	15217
4.71533	15189
4.71600	15162
4.71667	15135
4.71733	15108
4.71800	15081
4.71867	15054
4.71933	15027
4.72000	15001
4.72067	14975
4.72133	14949
4.72200	14923
4.72267	14897
4.72333	14872
4.72400	14846
4.72467	14821
4.72533	14796
4.72600	14772
4.72667	14747
4.72733	14723
4.72800	14699
4.72867	14676
4.72933	14653
4.73000	14630
4.73067	14607
4.73133	14584
4.73200	14562
4.73267	14540
4.73333	14518
4.73400	14497
4.73467	14475
4.73533	14454
4.73600	14433
4.73667	14413
4.73733	14392
4.73800	14371
4.73867	14351
4.73933	14331
4.74000	14311
4.74067	14291
4.74133	14271
4.74200	14251
4.74267	14232
4.74333	14213
4.74400	14194
4.74467	14175
4.74533	14156
4.74600	14138
4.74667	14119
4.74733	14101
4.74800	14083
4.74867	14066
4.74933	14048
4.75000	14031
4.75067	14014
4.75133	13997
4.75200	13981
4.75267	13964
4.75333	13948
4.75400	13932
4.75467	13916
4.75533	13900
4.75600	13885
4.75667	13870
4.75733	13855
4.75800	13840
4.75867	13826
4.75933	13811
4.76000	13797
4.76067	13783
4.76133	13769
4.76200	13755
4.76267	13742
4.76333	13728
4.76400	13715
4.76467	13702
4.76533	13690
4.76600	13677
4.76667	13665
4.76733	13652
4.76800	13640
4.76867	13628
4.76933	13617
4.77000	13605
4.77067	13593
4.77133	13581
4.77200	13570
4.77267	13558
4.77333	13547
4.77400	13536
4.77467	13524
4.77533	13513
4.77600	13502
4.77667	13491
4.77733	13479
4.77800	13468
4.77867	13457
4.77933	13446
4.78000	13435
4.78067	13424
4.78133	13413
4.78200	13402
4.78267	13391
4.78333	13380
4.78400	13369
4.78467	13358
4.78533	13347
4.78600	13336
4.78667	13325
4.78733	13314
4.78800	13303
4.78867	13292
4.78933	13282
4.79000	13271
4.79067	13260
4.79133	13249
4.79200	13238
4.79267	13227
4.79333	13216
4.79400	13206
4.79467	13195
4.79533	13184
4.79600	13173
4.79667	13163
4.79733	13152
4.79800	13141
4.79867	13131
4.79933	13120
4.80000	13109
4.80067	13099
4.80133	13088
4.80200	13077
4.80267	13067
4.80333	13056
4.80400	13046
4.80467	13036
4.80533	13025
4.80600	13015
4.80667	13004
4.80733	12994
4.80800	12983
4.80867	12972
4.80933	12962
4.81000	12951
4.81067	12940
4.81133	12930
4.81200	12919
4.81267	12909
4.81333	12898
4.81400	12887
4.81467	12877
4.81533	12867
4.81600	12856
4.81667	12846
4.81733	12836
4.81800	12826
4.81867	12816
4.81933	12806
4.82000	12796
4.82067	12787
4.82133	12777
4.82200	12768
4.82267	12759
4.82333	12750
4.82400	12741
4.82467	12732
4.82533	12723
4.82600	12715
4.82667	12706
4.82733	12698
4.82800	12690
4.82867	12681
4.82933	12673
4.83000	12665
4.83067	12657
4.83133	12649
4.83200	12641
4.83267	12632
4.83333	12624
4.83400	12616
4.83467	12609
4.83533	12601
4.83600	12593
4.83667	12585
4.83733	12577
4.83800	12569
4.83867	12561
4.83933	12554
4.84000	12546
4.84067	12538
4.84133	12531
4.84200	12523
4.84267	12516
4.84333	12509
4.84400	12502
4.84467	12495
4.84533	12488
4.84600	12481
4.84667	12474
4.84733	12467
4.84800	12460
4.84867	12454
4.84933	12447
4.85000	12441
4.85067	12434
4.85133	12428
4.85200	12421
4.85267	12415
4.85333	12408
4.85400	12401
4.85467	12395
4.85533	12388
4.85600	12381
4.85667	12375
4.85733	12368
4.85800	12361
4.85867	12354
4.85933	12347
4.86000	12341
4.86067	12334
4.86133	12327
4.86200	12320
4.86267	12313
4.86333	12306
4.86400	12298
4.86467	12291
4.86533	12284
4.86600	12277
4.86667	12270
4.86733	12263
4.86800	12255
4.86867	12248
4.86933	12241
4.87000	12233
4.87067	12226
4.87133	12218
4.87200	12210
4.87267	12203
4.87333	12195
4.87400	12187
4.87467	12180
4.87533	12172
4.87600	12164
4.87667	12156
4.87733	12148
4.87800	12141
4.87867	12133
4.87933	12125
4.88000	12117
4.88067	12109
4.88133	12101
4.88200	12093
4.88267	12085
4.88333	12078
4.88400	12070
4.88467	12062
4.88533	12054
4.88600	12047
4.88667	12039
4.88733	12031
4.88800	12024
4.88867	12016
4.88933	12009
4.89000	12001
4.89067	11994
4.89133	11987
4.89200	11979
4.89267	11972
4.89333	11965
4.89400	11958
4.89467	11950
4.89533	11943
4.89600	11936
4.89667	11929
4.89733	11922
4.89800	11915
4.89867	11908
4.89933	11901
4.90000	11894
4.90067	11887
4.90133	11880
4.90200	11874
4.90267	11867
4.90333	11860
4.90400	11853
4.90467	11846
4.90533	11839
4.90600	11832
4.90667	11825
4.90733	11818
4.90800	11812
4.90867	11805
4.90933	11798
4.91000	11792
4.91067	11786
4.91133	11779
4.91200	11773
4.91267	11767
4.91333	11761
4.91400	11755
4.91467	11749
4.91533	11744
4.91600	11738
4.91667	11732
4.91733	11727
4.91800	11722
4.91867	11716
4.91933	11711
4.92000	11706
4.92067	11701
4.92133	11696
4.92200	11691
4.92267	11687
4.92333	11682
4.92400	11677
4.92467	11673
4.92533	11668
4.92600	11664
4.92667	11659
4.92733	11655
4.92800	11650
4.92867	11646
4.92933	11641
4.93000	11637
4.93067	11632
4.93133	11628
4.93200	11623
4.93267	11619
4.93333	11614
4.93400	11610
4.93467	11606
4.93533	11601
4.93600	11597
4.93667	11592
4.93733	11588
4.93800	11584
4.93867	11579
4.93933	11575
4.94000	11571
4.94067	11567
4.94133	11563
4.94200	11559
4.94267	11555
4.94333	11551
4.94400	11547
4.94467	11543
4.94533	11540
4.94600	11536
4.94667	11532
4.94733	11529
4.94800	11525
4.94867	11521
4.94933	11517
4.95000	11514
4.95067	11510
4.95133	11507
4.95200	11503
4.95267	11500
4.95333	11496
4.95400	11492
4.95467	11489
4.95533	11485
4.95600	11481
4.95667	11478
4.95733	11474
4.95800	11470
4.95867	11467
4.95933	11463
4.96000	11459
4.96067	11456
4.96133	11452
4.96200	11448
4.96267	11445
4.96333	11441
4.96400	11438
4.96467	11434
4.96533	11431
4.96600	11427
4.96667	11424
4.96733	11420
4.96800	11417
4.96867	11414
4.96933	11411
4.97000	11407
4.97067	11404
4.97133	11401
4.97200	11398
4.97267	11395
4.97333	11393
4.97400	11390
4.97467	11387
4.97533	11384
4.97600	11381
4.97667	11379
4.97733	11376
4.97800	11373
4.97867	11371
4.97933	11368
4.98000	11365
4.98067	11363
4.98133	11360
4.98200	11358
4.98267	11355
4.98333	11353
4.98400	11350
4.98467	11348
4.98533	11345
4.98600	11343
4.98667	11340
4.98733	11338
4.98800	11335
4.98867	11333
4.98933	11331
4.99000	11328
4.99067	11325
4.99133	11323
4.99200	11320
4.99267	11318
4.99333	11315
4.99400	11312
4.99467	11310
4.99533	11307
4.99600	11305
4.99667	11302
4.99733	11300
4.99800	11297
4.99867	11295
4.99933	11292
5.00000	11290
5.00067	11287
5.00133	11285
5.00200	11282
5.00267	11280
5.00333	11277
5.00400	11275
5.00467	11272
5.00533	11270
5.00600	11267
5.00667	11265
5.00733	11262
5.00800	11260
5.00867	11257
5.00933	11254
5.01000	11251
5.01067	11249
5.01133	11246
5.01200	11243
5.01267	11240
5.01333	11237
5.01400	11234
5.01467	11230
5.01533	11227
5.01600	11224
5.01667	11220
5.01733	11216
5.01800	11213
5.01867	11209
5.01933	11205
5.02000	11202
5.02067	11198
5.02133	11194
5.02200	11190
5.02267	11186
5.02333	11182
5.02400	11178
5.02467	11174
5.02533	11170
5.02600	11166
5.02667	11162
5.02733	11158
5.02800	11154
5.02867	11149
5.02933	11145
5.03000	11141
5.03067	11136
5.03133	11132
5.03200	11127
5.03267	11123
5.03333	11118
5.03400	11113
5.03467	11108
5.03533	11104
5.03600	11099
5.03667	11094
5.03733	11089
5.03800	11084
5.03867	11079
5.03933	11073
5.04000	11068
5.04067	11063
5.04133	11057
5.04200	11052
5.04267	11046
5.04333	11040
5.04400	11035
5.04467	11029
5.04533	11023
5.04600	11017
5.04667	11011
5.04733	11005
5.04800	10999
5.04867	10993
5.04933	10987
5.05000	10981
5.05067	10974
5.05133	10968
5.05200	10962
5.05267	10956
5.05333	10950
5.05400	10943
5.05467	10937
5.05533	10930
5.05600	10924
5.05667	10918
5.05733	10911
5.05800	10905
5.05867	10898
5.05933	10892
5.06000	10885
5.06067	10879
5.06133	10872
5.06200	10866
5.06267	10859
5.06333	10852
5.06400	10846
5.06467	10839
5.06533	10833
5.06600	10826
5.06667	10820
5.06733	10813
5.06800	10806
5.06867	10800
5.06933	10793
5.07000	10787
5.07067	10780
5.07133	10774
5.07200	10768
5.07267	10761
5.07333	10755
5.07400	10749
5.07467	10743
5.07533	10737
5.07600	10731
5.07667	10725
5.07733	10719
5.07800	10713
5.07867	10707
5.07933	10701
5.08000	10695
5.08067	10689
5.08133	10684
5.08200	10678
5.08267	10672
5.08333	10667
5.08400	10661
5.08467	10655
5.08533	10650
5.08600	10644
5.08667	10639
5.08733	10634
5.08800	10628
5.08867	10623
5.08933	10618
5.09000	10613
5.09067	10608
5.09133	10603
5.09200	10598
5.09267	10593
5.09333	10588
5.09400	10583
5.09467	10578
5.09533	10574
5.09600	10569
5.09667	10564
5.09733	10560
5.09800	10555
5.09867	10550
5.09933	10546
5.10000	10541
5.10067	10537
5.10133	10532
5.10200	10528
5.10267	10524
5.10333	10519
5.10400	10515
5.10467	10511
5.10533	10507
5.10600	10503
5.10667	10499
5.10733	10495
5.10800	10492
5.10867	10488
5.10933	10484
5.11000	10481
5.11067	10477
5.11133	10474
5.11200	10471
5.11267	10467
5.11333	10464
5.11400	10461
5.11467	10458
5.11533	10455
5.11600	10453
5.11667	10450
5.11733	10447
5.11800	10445
5.11867	10443
5.11933	10440
5.12000	10438
5.12067	10436
5.12133	10434
5.12200	10432
5.12267	10431
5.12333	10429
5.12400	10427
5.12467	10426
5.12533	10424
5.12600	10423
5.12667	10422
5.12733	10421
5.12800	10420
5.12867	10418
5.12933	10417
5.13000	10417
5.13067	10416
5.13133	10415
5.13200	10414
5.13267	10414
5.13333	10413
5.13400	10413
5.13467	10412
5.13533	10412
5.13600	10412
5.13667	10412
5.13733	10413
5.13800	10413
5.13867	10413
5.13933	10414
5.14000	10415
5.14067	10415
5.14133	10416
5.14200	10418
5.14267	10419
5.14333	10420
5.14400	10422
5.14467	10424
5.14533	10425
5.14600	10427
5.14667	10429
5.14733	10431
5.14800	10433
5.14867	10436
5.14933	10438
5.15000	10441
5.15067	10443
5.15133	10446
5.15200	10449
5.15267	10452
5.15333	10455
5.15400	10458
5.15467	10461
5.15533	10465
5.15600	10469
5.15667	10473
5.15733	10477
5.15800	10481
5.15867	10485
5.15933	10490
5.16000	10495
5.16067	10500
5.16133	10505
5.16200	10510
5.16267	10516
5.16333	10521
5.16400	10527
5.16467	10533
5.16533	10539
5.16600	10546
5.16667	10552
5.16733	10559
5.16800	10566
5.16867	10573
5.16933	10580
5.17000	10588
5.17067	10595
5.17133	10603
5.17200	10611
5.17267	10618
5.17333	10626
5.17400	10635
5.17467	10643
5.17533	10651
5.17600	10660
5.17667	10669
5.17733	10677
5.17800	10686
5.17867	10695
5.17933	10705
5.18000	10714
5.18067	10723
5.18133	10733
5.18200	10742
5.18267	10752
5.18333	10762
5.18400	10771
5.18467	10781
5.18533	10791
5.18600	10801
5.18667	10812
5.18733	10822
5.18800	10832
5.18867	10842
5.18933	10853
5.19000	10863
5.19067	10873
5.19133	10884
5.19200	10894
5.19267	10904
5.19333	10914
5.19400	10925
5.19467	10935
5.19533	10946
5.19600	10956
5.19667	10966
5.19733	10976
5.19800	10987
5.19867	10997
5.19933	11007
5.20000	11017
5.20067	11026
5.20133	11036
5.20200	11046
5.20267	11055
5.20333	11065
5.20400	11074
5.20467	11083
5.20533	11093
5.20600	11101
5.20667	11110
5.20733	11119
5.20800	11128
5.20867	11136
5.20933	11144
5.21000	11152
5.21067	11160
5.21133	11168
5.21200	11176
5.21267	11183
5.21333	11190
5.21400	11197
5.21467	11204
5.21533	11211
5.21600	11217
5.21667	11224
5.21733	11230
5.21800	11236
5.21867	11241
5.21933	11247
5.22000	11252
5.22067	11257
5.22133	11261
5.22200	11266
5.22267	11270
5.22333	11274
5.22400	11277
5.22467	11281
5.22533	11284
5.22600	11286
5.22667	11289
5.22733	11291
5.22800	11293
5.22867	11295
5.22933	11296
5.23000	11298
5.23067	11298
5.23133	11299
5.23200	11299
5.23267	11300
5.23333	11299
5.23400	11299
5.23467	11298
5.23533	11297
5.23600	11296
5.23667	11294
5.23733	11293
5.23800	11291
5.23867	11288
5.23933	11286
5.24000	11283
5.24067	11280
5.24133	11276
5.24200	11273
5.24267	11269
5.24333	11265
5.24400	11261
5.24467	11257
5.24533	11252
5.24600	11247
5.24667	11242
5.24733	11237
5.24800	11232
5.24867	11226
5.24933	11220
5.25000	11214
5.25067	11208
5.25133	11202
5.25200	11195
5.25267	11188
5.25333	11181
5.25400	11174
5.25467	11167
5.25533	11159
5.25600	11152
5.25667	11144
5.25733	11136
5.25800	11128
5.25867	11119
5.25933	11111
5.26000	11102
5.26067	11093
5.26133	11084
5.26200	11075
5.26267	11066
5.26333	11057
5.26400	11047
5.26467	11038
5.26533	11028
5.26600	11018
5.26667	11009
5.26733	10999
5.26800	10989
5.26867	10978
5.26933	10968
5.27000	10958
5.27067	10948
5.27133	10937
5.27200	10927
5.27267	10916
5.27333	10905
5.27400	10895
5.27467	10884
5.27533	10874
5.27600	10863
5.27667	10852
5.27733	10842
5.27800	10831
5.27867	10821
5.27933	10810
5.28000	10799
5.28067	10789
5.28133	10778
5.28200	10768
5.28267	10757
5.28333	10747
5.28400	10736
5.28467	10726
5.28533	10716
5.28600	10705
5.28667	10695
5.28733	10685
5.28800	10675
5.28867	10664
5.28933	10654
5.29000	10644
5.29067	10634
5.29133	10624
5.29200	10615
5.29267	10605
5.29333	10595
5.29400	10586
5.29467	10576
5.29533	10567
5.29600	10557
5.29667	10548
5.29733	10539
5.29800	10530
5.29867	10521
5.29933	10513
5.30000	10504
5.30067	10495
5.30133	10487
5.30200	10479
5.30267	10471
5.30333	10463
5.30400	10455
5.30467	10447
5.30533	10439
5.30600	10432
5.30667	10424
5.30733	10417
5.30800	10409
5.30867	10402
5.30933	10395
5.31000	10388
5.31067	10381
5.31133	10375
5.31200	10368
5.31267	10361
5.31333	10355
5.31400	10349
5.31467	10342
5.31533	10336
5.31600	10330
5.31667	10324
5.31733	10318
5.31800	10312
5.31867	10307
5.31933	10302
5.32000	10296
5.32067	10291
5.32133	10286
5.32200	10281
5.32267	10276
5.32333	10271
5.32400	10267
5.32467	10262
5.32533	10258
5.32600	10253
5.32667	10249
5.32733	10245
5.32800	10241
5.32867	10237
5.32933	10234
5.33000	10231
5.33067	10227
5.33133	10224
5.33200	10221
5.33267	10218
5.33333	10215
5.33400	10213
5.33467	10210
5.33533	10208
5.33600	10205
5.33667	10203
5.33733	10201
5.33800	10199
5.33867	10197
5.33933	10195
5.34000	10193
5.34067	10192
5.34133	10190
5.34200	10189
5.34267	10188
5.34333	10186
5.34400	10185
5.34467	10185
5.34533	10184
5.34600	10183
5.34667	10183
5.34733	10182
5.34800	10182
5.34867	10182
5.34933	10182
5.35000	10182
5.35067	10182
5.35133	10183
5.35200	10183
5.35267	10184
5.35333	10185
5.35400	10186
5.35467	10187
5.35533	10188
5.35600	10189
5.35667	10191
5.35733	10192
5.35800	10194
5.35867	10195
5.35933	10197
5.36000	10199
5.36067	10200
5.36133	10202
5.36200	10204
5.36267	10206
5.36333	10208
5.36400	10211
5.36467	10213
5.36533	10216
5.36600	10218
5.36667	10221
5.36733	10224
5.36800	10227
5.36867	10230
5.36933	10233
5.37000	10236
5.37067	10239
5.37133	10243
5.37200	10246
5.37267	10250
5.37333	10254
5.37400	10257
5.37467	10261
5.37533	10265
5.37600	10269
5.37667	10273
5.37733	10277
5.37800	10281
5.37867	10284
5.37933	10288
5.38000	10292
5.38067	10296
5.38133	10300
5.38200	10304
5.38267	10308
5.38333	10312
5.38400	10316
5.38467	10319
5.38533	10323
5.38600	10327
5.38667	10331
5.38733	10334
5.38800	10338
5.38867	10342
5.38933	10345
5.39000	10349
5.39067	10353
5.39133	10357
5.39200	10360
5.39267	10364
5.39333	10368
5.39400	10371
5.39467	10375
5.39533	10378
5.39600	10382
5.39667	10385
5.39733	10388
5.39800	10392
5.39867	10395
5.39933	10398
5.40000	10401
5.40067	10403
5.40133	10406
5.40200	10409
5.40267	10411
5.40333	10413
5.40400	10416
5.40467	10418
5.40533	10420
5.40600	10422
5.40667	10424
5.40733	10426
5.40800	10427
5.40867	10429
5.40933	10430
5.41000	10432
5.41067	10433
5.41133	10434
5.41200	10435
5.41267	10436
5.41333	10437
5.41400	10438
5.41467	10438
5.41533	10438
5.41600	10439
5.41667	10439
5.41733	10439
5.41800	10438
5.41867	10438
5.41933	10437
5.42000	10437
5.42067	10436
5.42133	10435
5.42200	10434
5.42267	10432
5.42333	10431
5.42400	10430
5.42467	10428
5.42533	10426
5.42600	10424
5.42667	10422
5.42733	10420
5.42800	10418
5.42867	10415
5.42933	10413
5.43000	10410
5.43067	10407
5.43133	10404
5.43200	10401
5.43267	10397
5.43333	10394
5.43400	10390
5.43467	10387
5.43533	10383
5.43600	10379
5.43667	10375
5.43733	10371
5.43800	10366
5.43867	10362
5.43933	10357
5.44000	10353
5.44067	10348
5.44133	10343
5.44200	10338
5.44267	10333
5.44333	10328
5.44400	10322
5.44467	10317
5.44533	10312
5.44600	10306
5.44667	10300
5.44733	10295
5.44800	10289
5.44867	10282
5.44933	10276
5.45000	10270
5.45067	10263
5.45133	10257
5.45200	10250
5.45267	10243
5.45333	10236
5.45400	10229
5.45467	10222
5.45533	10214
5.45600	10207
5.45667	10200
5.45733	10192
5.45800	10185
5.45867	10177
5.45933	10169
5.46000	10162
5.46067	10154
5.46133	10146
5.46200	10138
5.46267	10130
5.46333	10122
5.46400	10114
5.46467	10106
5.46533	10097
5.46600	10089
5.46667	10081
5.46733	10072
5.46800	10064
5.46867	10055
5.46933	10046
5.47000	10038
5.47067	10029
5.47133	10020
5.47200	10011
5.47267	10002
5.47333	9993
5.47400	9984
5.47467	9975
5.47533	9966
5.47600	9957
5.47667	9947
5.47733	9938
5.47800	9929
5.47867	9919
5.47933	9910
5.48000	9900
5.48067	9890
5.48133	9881
5.48200	9871
5.48267	9862
5.48333	9852
5.48400	9843
5.48467	9833
5.48533	9824
5.48600	9814
5.48667	9805
5.48733	9796
5.48800	9786
5.48867	9777
5.48933	9768
5.49000	9759
5.49067	9750
5.49133	9741
5.49200	9732
5.49267	9723
5.49333	9714
5.49400	9705
5.49467	9697
5.49533	9688
5.49600	9679
5.49667	9671
5.49733	9662
5.49800	9653
5.49867	9645
5.49933	9636
5.50000	9628
5.50067	9620
5.50133	9612
5.50200	9603
5.50267	9595
5.50333	9587
5.50400	9580
5.50467	9572
5.50533	9564
5.50600	9556
5.50667	9549
5.50733	9541
5.50800	9533
5.50867	9526
5.50933	9519
5.51000	9511
5.51067	9504
5.51133	9497
5.51200	9490
5.51267	9483
5.51333	9476
5.51400	9469
5.51467	9462
5.51533	9455
5.51600	9449
5.51667	9442
5.51733	9435
5.51800	9429
5.51867	9422
5.51933	9416
5.52000	9410
5.52067	9404
5.52133	9398
5.52200	9392
5.52267	9386
5.52333	9380
5.52400	9374
5.52467	9369
5.52533	9363
5.52600	9358
5.52667	9352
5.52733	9347
5.52800	9342
5.52867	9337
5.52933	9332
5.53000	9327
5.53067	9322
5.53133	9317
5.53200	9312
5.53267	9307
5.53333	9302
5.53400	9297
5.53467	9293
5.53533	9288
5.53600	9284
5.53667	9279
5.53733	9275
5.53800	9270
5.53867	9266
5.53933	9262
5.54000	9258
5.54067	9253
5.54133	9249
5.54200	9245
5.54267	9242
5.54333	9238
5.54400	9234
5.54467	9230
5.54533	9227
5.54600	9223
5.54667	9220
5.54733	9216
5.54800	9213
5.54867	9209
5.54933	9206
5.55000	9203
5.55067	9200
5.55133	9197
5.55200	9194
5.55267	9191
5.55333	9189
5.55400	9186
5.55467	9184
5.55533	9181
5.55600	9179
5.55667	9176
5.55733	9174
5.55800	9172
5.55867	9170
5.55933	9168
5.56000	9166
5.56067	9164
5.56133	9162
5.56200	9160
5.56267	9158
5.56333	9156
5.56400	9155
5.56467	9153
5.56533	9151
5.56600	9150
5.56667	9148
5.56733	9147
5.56800	9146
5.56867	9144
5.56933	9143
5.57000	9142
5.57067	9141
5.57133	9140
5.57200	9139
5.57267	9138
5.57333	9137
5.57400	9136
5.57467	9135
5.57533	9134
5.57600	9134
5.57667	9133
5.57733	9132
5.57800	9132
5.57867	9131
5.57933	9131
5.58000	9130
5.58067	9130
5.58133	9130
5.58200	9129
5.58267	9129
5.58333	9128
5.58400	9128
5.58467	9127
5.58533	9127
5.58600	9127
5.58667	9126
5.58733	9126
5.58800	9126
5.58867	9125
5.58933	9125
5.59000	9125
5.59067	9124
5.59133	9124
5.59200	9124
5.59267	9123
5.59333	9123
5.59400	9123
5.59467	9122
5.59533	9122
5.59600	9122
5.59667	9121
5.59733	9121
5.59800	9121
5.59867	9120
5.59933	9120
5.60000	9119
5.60067	9119
5.60133	9119
5.60200	9118
5.60267	9118
5.60333	9117
5.60400	9117
5.60467	9116
5.60533	9116
5.60600	9115
5.60667	9115
5.60733	9114
5.60800	9114
5.60867	9113
5.60933	9112
5.61000	9112
5.61067	9111
5.61133	9110
5.61200	9109
5.61267	9109
5.61333	9108
5.61400	9107
5.61467	9107
5.61533	9106
5.61600	9105
5.61667	9104
5.61733	9103
5.61800	9103
5.61867	9102
5.61933	9101
5.62000	9100
5.62067	9099
5.62133	9098
5.62200	9097
5.62267	9096
5.62333	9095
5.62400	9095
5.62467	9094
5.62533	9093
5.62600	9092
5.62667	9091
5.62733	9091
5.62800	9090
5.62867	9089
5.62933	9088
5.63000	9087
5.63067	9086
5.63133	9085
5.63200	9083
5.63267	9082
5.63333	9081
5.63400	9080
5.63467	9078
5.63533	9077
5.63600	9076
5.63667	9074
5.63733	9073
5.63800	9071
5.63867	9070
5.63933	9068
5.64000	9067
5.64067	9065
5.64133	9063
5.64200	9062
5.64267	9060
5.64333	9058
5.64400	9056
5.64467	9055
5.64533	9053
5.64600	9051
5.64667	9049
5.64733	9047
5.64800	9045
5.64867	9043
5.64933	9041
5.65000	9039
5.65067	9037
5.65133	9035
5.65200	9033
5.65267	9031
5.65333	9029
5.65400	9027
5.65467	9025
5.65533	9022
5.65600	9020
5.65667	9018
5.65733	9015
5.65800	9013
5.65867	9010
5.65933	9008
5.66000	9005
5.66067	9002
5.66133	9000
5.66200	8997
5.66267	8994
5.66333	8991
5.66400	8988
5.66467	8986
5.66533	8983
5.66600	8980
5.66667	8977
5.66733	8974
5.66800	8971
5.66867	8968
5.66933	8965
5.67000	8962
5.67067	8959
5.67133	8956
5.67200	8953
5.67267	8950
5.67333	8947
5.67400	8943
5.67467	8940
5.67533	8937
5.67600	8934
5.67667	8931
5.67733	8928
5.67800	8925
5.67867	8922
5.67933	8919
5.68000	8916
5.68067	8913
5.68133	8910
5.68200	8907
5.68267	8905
5.68333	8902
5.68400	8899
5.68467	8896
5.68533	8893
5.68600	8891
5.68667	8888
5.68733	8885
5.68800	8882
5.68867	8879
5.68933	8876
5.69000	8873
5.69067	8870
5.69133	8867
5.69200	8864
5.69267	8861
5.69333	8858
5.69400	8855
5.69467	8852
5.69533	8850
5.69600	8847
5.69667	8844
5.69733	8841
5.69800	8838
5.69867	8836
5.69933	8833
5.70000	8830
5.70067	8827
5.70133	8825
5.70200	8822
5.70267	8819
5.70333	8817
5.70400	8814
5.70467	8812
5.70533	8809
5.70600	8806
5.70667	8804
5.70733	8802
5.70800	8799
5.70867	8797
5.70933	8795
5.71000	8792
5.71067	8790
5.71133	8788
5.71200	8785
5.71267	8783
5.71333	8781
5.71400	8779
5.71467	8776
5.71533	8774
5.71600	8772
5.71667	8770
5.71733	8768
5.71800	8765
5.71867	8763
5.71933	8761
5.72000	8759
5.72067	8757
5.72133	8755
5.72200	8753
5.72267	8751
5.72333	8749
5.72400	8747
5.72467	8745
5.72533	8743
5.72600	8742
5.72667	8740
5.72733	8738
5.72800	8736
5.72867	8735
5.72933	8733
5.73000	8731
5.73067	8730
5.73133	8729
5.73200	8727
5.73267	8726
5.73333	8725
5.73400	8723
5.73467	8722
5.73533	8721
5.73600	8720
5.73667	8719
5.73733	8718
5.73800	8717
5.73867	8716
5.73933	8715
5.74000	8714
5.74067	8714
5.74133	8713
5.74200	8712
5.74267	8712
5.74333	8711
5.74400	8711
5.74467	8710
5.74533	8710
5.74600	8709
5.74667	8709
5.74733	8709
5.74800	8709
5.74867	8708
5.74933	8708
5.75000	8708
5.75067	8708
5.75133	8708
5.75200	8709
5.75267	8709
5.75333	8709
5.75400	8710
5.75467	8710
5.75533	8711
5.75600	8712
5.75667	8713
5.75733	8714
5.75800	8715
5.75867	8717
5.75933	8718
5.76000	8720
5.76067	8721
5.76133	8723
5.76200	8725
5.76267	8727
5.76333	8729
5.76400	8731
5.76467	8734
5.76533	8736
5.76600	8739
5.76667	8742
5.76733	8745
5.76800	8748
5.76867	8751
5.76933	8754
5.77000	8757
5.77067	8761
5.77133	8764
5.77200	8768
5.77267	8771
5.77333	8775
5.77400	8779
5.77467	8783
5.77533	8787
5.77600	8792
5.77667	8796
5.77733	8801
5.77800	8805
5.77867	8810
5.77933	8815
5.78000	8820
5.78067	8825
5.78133	8830
5.78200	8836
5.78267	8842
5.78333	8847
5.78400	8853
5.78467	8859
5.78533	8865
5.78600	8872
5.78667	8878
5.78733	8885
5.78800	8891
5.78867	8898
5.78933	8905
5.79000	8912
5.79067	8919
5.79133	8927
5.79200	8934
5.79267	8942
5.79333	8950
5.79400	8957
5.79467	8965
5.79533	8974
5.79600	8982
5.79667	8990
5.79733	8999
5.79800	9008
5.79867	9016
5.79933	9025
5.80000	9034
5.80067	9044
5.80133	9053
5.80200	9063
5.80267	9073
5.80333	9082
5.80400	9092
5.80467	9102
5.80533	9113
5.80600	9123
5.80667	9133
5.80733	9144
5.80800	9154
5.80867	9165
5.80933	9176
5.81000	9187
5.81067	9198
5.81133	9209
5.81200	9220
5.81267	9231
5.81333	9243
5.81400	9255
5.81467	9266
5.81533	9278
5.81600	9290
5.81667	9302
5.81733	9314
5.81800	9327
5.81867	9339
5.81933	9352
5.82000	9364
5.82067	9377
5.82133	9390
5.82200	9403
5.82267	9416
5.82333	9429
5.82400	9442
5.82467	9455
5.82533	9468
5.82600	9481
5.82667	9495
5.82733	9508
5.82800	9521
5.82867	9534
5.82933	9548
5.83000	9561
5.83067	9575
5.83133	9588
5.83200	9601
5.83267	9615
5.83333	9628
5.83400	9641
5.83467	9655
5.83533	9668
5.83600	9681
5.83667	9695
5.83733	9708
5.83800	9722
5.83867	9735
5.83933	9748
5.84000	9762
5.84067	9775
5.84133	9788
5.84200	9801
5.84267	9815
5.84333	9828
5.84400	9841
5.84467	9854
5.84533	9866
5.84600	9879
5.84667	9892
5.84733	9904
5.84800	9917
5.84867	9929
5.84933	9941
5.85000	9954
5.85067	9966
5.85133	9978
5.85200	9989
5.85267	10001
5.85333	10013
5.85400	10024
5.85467	10035
5.85533	10046
5.85600	10057
5.85667	10068
5.85733	10079
5.85800	10089
5.85867	10099
5.85933	10109
5.86000	10119
5.86067	10129
5.86133	10139
5.86200	10148
5.86267	10157
5.86333	10166
5.86400	10175
5.86467	10184
5.86533	10192
5.86600	10201
5.86667	10209
5.86733	10217
5.86800	10225
5.86867	10232
5.86933	10240
5.87000	10247
5.87067	10254
5.87133	10261
5.87200	10268
5.87267	10275
5.87333	10281
5.87400	10287
5.87467	10293
5.87533	10298
5.87600	10304
5.87667	10309
5.87733	10314
5.87800	10319
5.87867	10323
5.87933	10327
5.88000	10331
5.88067	10335
5.88133	10338
5.88200	10342
5.88267	10345
5.88333	10348
5.88400	10350
5.88467	10353
5.88533	10355
5.88600	10357
5.88667	10359
5.88733	10361
5.88800	10362
5.88867	10364
5.88933	10365
5.89000	10366
5.89067	10367
5.89133	10367
5.89200	10368
5.89267	10368
5.89333	10368
5.89400	10368
5.89467	10368
5.89533	10367
5.89600	10367
5.89667	10366
5.89733	10365
5.89800	10363
5.89867	10362
5.89933	10360
5.90000	10358
5.90067	10356
5.90133	10354
5.90200	10352
5.90267	10350
5.90333	10347
5.90400	10344
5.90467	10341
5.90533	10338
5.90600	10335
5.90667	10332
5.90733	10328
5.90800	10324
5.90867	10321
5.90933	10317
5.91000	10313
5.91067	10309
5.91133	10304
5.91200	10300
5.91267	10296
5.91333	10291
5.91400	10286
5.91467	10282
5.91533	10277
5.91600	10272
5.91667	10266
5.91733	10261
5.91800	10256
5.91867	10250
5.91933	10245
5.92000	10239
5.92067	10234
5.92133	10228
5.92200	10222
5.92267	10216
5.92333	10210
5.92400	10204
5.92467	10198
5.92533	10192
5.92600	10186
5.92667	10180
5.92733	10173
5.92800	10167
5.92867	10160
5.92933	10154
5.93000	10147
5.93067	10141
5.93133	10134
5.93200	10127
5.93267	10121
5.93333	10114
5.93400	10107
5.93467	10101
5.93533	10094
5.93600	10087
5.93667	10081
5.93733	10074
5.93800	10067
5.93867	10060
5.93933	10054
5.94000	10047
5.94067	10040
5.94133	10033
5.94200	10027
5.94267	10020
5.94333	10013
5.94400	10006
5.94467	10000
5.94533	9993
5.94600	9987
5.94667	9980
5.94733	9973
5.94800	9967
5.94867	9960
5.94933	9954
5.95000	9947
5.95067	9941
5.95133	9934
5.95200	9928
5.95267	9921
5.95333	9915
5.95400	9909
5.95467	9902
5.95533	9896
5.95600	9890
5.95667	9883
5.95733	9877
5.95800	9871
5.95867	9865
5.95933	9858
5.96000	9852
5.96067	9846
5.96133	9840
5.96200	9834
5.96267	9828
5.96333	9822
5.96400	9815
5.96467	9809
5.96533	9803
5.96600	9797
5.96667	9791
5.96733	9785
5.96800	9779
5.96867	9773
5.96933	9767
5.97000	9761
5.97067	9755
5.97133	9749
5.97200	9743
5.97267	9737
5.97333	9731
5.97400	9726
5.97467	9720
5.97533	9714
5.97600	9708
5.97667	9703
5.97733	9697
5.97800	9692
5.97867	9686
5.97933	9681
5.98000	9676
5.98067	9670
5.98133	9665
5.98200	9660
5.98267	9654
5.98333	9649
5.98400	9644
5.98467	9638
5.98533	9633
5.98600	9628
5.98667	9623
5.98733	9617
5.98800	9612
5.98867	9607
5.98933	9602
5.99000	9597
5.99067	9592
5.99133	9586
5.99200	9581
5.99267	9576
5.99333	9571
5.99400	9566
5.99467	9561
5.99533	9556
5.99600	9550
5.99667	9545
5.99733	9540
5.99800	9535
5.99867	9530
5.99933	9525
6.00000	9520
6.00067	9515
6.00133	9511
6.00200	9506
6.00267	9501
6.00333	9496
6.00400	9491
6.00467	9487
6.00533	9482
6.00600	9477
6.00667	9473
6.00733	9468
6.00800	9464
6.00867	9459
6.00933	9455
6.01000	9450
6.01067	9446
6.01133	9441
6.01200	9437
6.01267	9433
6.01333	9428
6.01400	9424
6.01467	9420
6.01533	9416
6.01600	9412
6.01667	9407
6.01733	9403
6.01800	9399
6.01867	9395
6.01933	9391
6.02000	9387
6.02067	9383
6.02133	9379
6.02200	9375
6.02267	9371
6.02333	9367
6.02400	9363
6.02467	9360
6.02533	9356
6.02600	9352
6.02667	9348
6.02733	9345
6.02800	9341
6.02867	9337
6.02933	9334
6.03000	9330
6.03067	9327
6.03133	9323
6.03200	9320
6.03267	9317
6.03333	9313
6.03400	9310
6.03467	9307
6.03533	9303
6.03600	9300
6.03667	9297
6.03733	9293
6.03800	9290
6.03867	9287
6.03933	9284
6.04000	9280
6.04067	9277
6.04133	9274
6.04200	9271
6.04267	9268
6.04333	9265
6.04400	9262
6.04467	9259
6.04533	9255
6.04600	9252
6.04667	9249
6.04733	9246
6.04800	9244
6.04867	9241
6.04933	9238
6.05000	9235
6.05067	9232
6.05133	9230
6.05200	9227
6.05267	9224
6.05333	9222
6.05400	9219
6.05467	9216
6.05533	9214
6.05600	9211
6.05667	9209
6.05733	9206
6.05800	9204
6.05867	9202
6.05933	9199
6.06000	9197
6.06067	9194
6.06133	9192
6.06200	9189
6.06267	9187
6.06333	9184
6.06400	9182
6.06467	9179
6.06533	9177
6.06600	9175
6.06667	9172
6.06733	9170
6.06800	9167
6.06867	9165
6.06933	9163
6.07000	9160
6.07067	9158
6.07133	9156
6.07200	9153
6.07267	9151
6.07333	9149
6.07400	9147
6.07467	9145
6.07533	9142
6.07600	9140
6.07667	9138
6.07733	9136
6.07800	9134
6.07867	9132
6.07933	9130
6.08000	9128
6.08067	9126
6.08133	9124
6.08200	9122
6.08267	9120
6.08333	9118
6.08400	9116
6.08467	9114
6.08533	9112
6.08600	9110
6.08667	9108
6.08733	9106
6.08800	9104
6.08867	9102
6.08933	9100
6.09000	9098
6.09067	9096
6.09133	9094
6.09200	9092
6.09267	9090
6.09333	9089
6.09400	9087
6.09467	9085
6.09533	9083
6.09600	9081
6.09667	9079
6.09733	9077
6.09800	9075
6.09867	9073
6.09933	9071
6.10000	9069
6.10067	9068
6.10133	9066
6.10200	9064
6.10267	9062
6.10333	9060
6.10400	9058
6.10467	9056
6.10533	9054
6.10600	9052
6.10667	9051
6.10733	9049
6.10800	9047
6.10867	9045
6.10933	9043
6.11000	9041
6.11067	9039
6.11133	9038
6.11200	9036
6.11267	9034
6.11333	9032
6.11400	9030
6.11467	9028
6.11533	9026
6.11600	9025
6.11667	9023
6.11733	9021
6.11800	9019
6.11867	9017
6.11933	9015
6.12000	9014
6.12067	9012
6.12133	9010
6.12200	9008
6.12267	9006
6.12333	9005
6.12400	9003
6.12467	9001
6.12533	8999
6.12600	8997
6.12667	8996
6.12733	8994
6.12800	8992
6.12867	8990
6.12933	8988
6.13000	8986
6.13067	8984
6.13133	8982
6.13200	8980
6.13267	8978
6.13333	8976
6.13400	8974
6.13467	8972
6.13533	8970
6.13600	8968
6.13667	8966
6.13733	8964
6.13800	8962
6.13867	8960
6.13933	8958
6.14000	8956
6.14067	8953
6.14133	8951
6.14200	8949
6.14267	8947
6.14333	8944
6.14400	8942
6.14467	8940
6.14533	8938
6.14600	8935
6.14667	8933
6.14733	8930
6.14800	8928
6.14867	8926
6.14933	8923
6.15000	8921
6.15067	8918
6.15133	8916
6.15200	8913
6.15267	8911
6.15333	8909
6.15400	8906
6.15467	8904
6.15533	8901
6.15600	8899
6.15667	8896
6.15733	8894
6.15800	8891
6.15867	8889
6.15933	8886
6.16000	8884
6.16067	8881
6.16133	8879
6.16200	8876
6.16267	8874
6.16333	8871
6.16400	8869
6.16467	8866
6.16533	8863
6.16600	8861
6.16667	8858
6.16733	8856
6.16800	8853
6.16867	8851
6.16933	8848
6.17000	8846
6.17067	8843
6.17133	8840
6.17200	8838
6.17267	8835
6.17333	8833
6.17400	8830
6.17467	8828
6.17533	8825
6.17600	8823
6.17667	8820
6.17733	8818
6.17800	8815
6.17867	8813
6.17933	8810
6.18000	8807
6.18067	8805
6.18133	8802
6.18200	8800
6.18267	8797
6.18333	8794
6.18400	8792
6.18467	8789
6.18533	8786
6.18600	8784
6.18667	8781
6.18733	8779
6.18800	8776
6.18867	8773
6.18933	8771
6.19000	8769
6.19067	8766
6.19133	8764
6.19200	8762
6.19267	8759
6.19333	8757
6.19400	8755
6.19467	8752
6.19533	8750
6.19600	8748
6.19667	8746
6.19733	8744
6.19800	8741
6.19867	8739
6.19933	8737
6.20000	8735
6.20067	8733
6.20133	8731
6.20200	8729
6.20267	8727
6.20333	8725
6.20400	8723
6.20467	8721
6.20533	8719
6.20600	8717
6.20667	8715
6.20733	8713
6.20800	8711
6.20867	8710
6.20933	8708
6.21000	8706
6.21067	8704
6.21133	8703
6.21200	8701
6.21267	8699
6.21333	8698
6.21400	8696
6.21467	8695
6.21533	8693
6.21600	8692
6.21667	8690
6.21733	8689
6.21800	8688
6.21867	8687
6.21933	8685
6.22000	8684
6.22067	8683
6.22133	8682
6.22200	8681
6.22267	8680
6.22333	8679
6.22400	8678
6.22467	8677
6.22533	8676
6.22600	8675
6.22667	8674
6.22733	8673
6.22800	8672
6.22867	8671
6.22933	8670
6.23000	8669
6.23067	8668
6.23133	8668
6.23200	8667
6.23267	8666
6.23333	8666
6.23400	8665
6.23467	8665
6.23533	8664
6.23600	8664
6.23667	8663
6.23733	8663
6.23800	8662
6.23867	8662
6.23933	8662
6.24000	8661
6.24067	8661
6.24133	8661
6.24200	8660
6.24267	8660
6.24333	8660
6.24400	8660
6.24467	8659
6.24533	8659
6.24600	8659
6.24667	8659
6.24733	8659
6.24800	8659
6.24867	8659
6.24933	8658
6.25000	8658
6.25067	8658
6.25133	8658
6.25200	8658
6.25267	8658
6.25333	8657
6.25400	8657
6.25467	8657
6.25533	8657
6.25600	8657
6.25667	8656
6.25733	8656
6.25800	8656
6.25867	8656
6.25933	8656
6.26000	8656
6.26067	8655
6.26133	8655
6.26200	8655
6.26267	8655
6.26333	8655
6.26400	8655
6.26467	8655
6.26533	8656
6.26600	8656
6.26667	8656
6.26733	8656
6.26800	8656
6.26867	8656
6.26933	8656
6.27000	8656
6.27067	8656
6.27133	8656
6.27200	8657
6.27267	8657
6.27333	8657
6.27400	8657
6.27467	8657
6.27533	8657
6.27600	8657
6.27667	8657
6.27733	8657
6.27800	8657
6.27867	8657
6.27933	8657
6.28000	8657
6.28067	8657
6.28133	8656
6.28200	8656
6.28267	8656
6.28333	8656
6.28400	8656
6.28467	8656
6.28533	8656
6.28600	8656
6.28667	8655
6.28733	8655
6.28800	8655
6.28867	8655
6.28933	8655
6.29000	8655
6.29067	8655
6.29133	8654
6.29200	8654
6.29267	8654
6.29333	8654
6.29400	8653
6.29467	8653
6.29533	8652
6.29600	8652
6.29667	8651
6.29733	8651
6.29800	8650
6.29867	8649
6.29933	8649
6.30000	8648
6.30067	8647
6.30133	8646
6.30200	8645
6.30267	8644
6.30333	8643
6.30400	8642
6.30467	8641
6.30533	8639
6.30600	8638
6.30667	8637
6.30733	8635
6.30800	8634
6.30867	8632
6.30933	8631
6.31000	8629
6.31067	8628
6.31133	8626
6.31200	8624
6.31267	8623
6.31333	8621
6.31400	8619
6.31467	8618
6.31533	8616
6.31600	8614
6.31667	8613
6.31733	8611
6.31800	8609
6.31867	8607
6.31933	8606
6.32000	8604
6.32067	8602
6.32133	8600
6.32200	8598
6.32267	8596
6.32333	8594
6.32400	8593
6.32467	8591
6.32533	8589
6.32600	8587
6.32667	8585
6.32733	8583
6.32800	8581
6.32867	8579
6.32933	8577
6.33000	8575
6.33067	8573
6.33133	8571
6.33200	8569
6.33267	8567
6.33333	8565
6.33400	8563
6.33467	8561
6.33533	8559
6.33600	8557
6.33667	8555
6.33733	8553
6.33800	8551
6.33867	8549
6.33933	8547
6.34000	8545
6.34067	8543
6.34133	8541
6.34200	8539
6.34267	8537
6.34333	8535
6.34400	8532
6.34467	8530
6.34533	8528
6.34600	8525
6.34667	8523
6.34733	8521
6.34800	8518
6.34867	8515
6.34933	8513
6.35000	8510
6.35067	8507
6.35133	8505
6.35200	8502
6.35267	8499
6.35333	8496
6.35400	8493
6.35467	8491
6.35533	8488
6.35600	8485
6.35667	8482
6.35733	8479
6.35800	8476
6.35867	8473
6.35933	8470
6.36000	8467
6.36067	8464
6.36133	8461
6.36200	8459
6.36267	8456
6.36333	8453
6.36400	8450
6.36467	8446
6.36533	8443
6.36600	8440
6.36667	8437
6.36733	8434
6.36800	8431
6.36867	8428
6.36933	8425
6.37000	8422
6.37067	8419
6.37133	8416
6.37200	8412
6.37267	8409
6.37333	8406
6.37400	8403
6.37467	8400
6.37533	8397
6.37600	8394
6.37667	8390
6.37733	8387
6.37800	8384
6.37867	8381
6.37933	8378
6.38000	8375
6.38067	8372
6.38133	8369
6.38200	8366
6.38267	8363
6.38333	8360
6.38400	8357
6.38467	8355
6.38533	8352
6.38600	8349
6.38667	8346
6.38733	8343
6.38800	8340
6.38867	8338
6.38933	8335
6.39000	8332
6.39067	8329
6.39133	8326
6.39200	8324
6.39267	8321
6.39333	8318
6.39400	8316
6.39467	8313
6.39533	8310
6.39600	8308
6.39667	8305
6.39733	8303
6.39800	8300
6.39867	8298
6.39933	8296

