[Header]
Application Name	LabSolutions
Version	5.73
Data File Name	C:\LabSolutions\Data\Project1\stephen\2016-01-04\85.gcd
Output Date	1/5/2016
Output Time	4:51:45 PM

[Configuration]
Instrument Name	WEISSTA-PC-Instrument1
Instrument #	1
Line #	1
# of Detectors	1
Detector ID	DET#2
Detector Name	DFID1
# of Channels	1

[Chromatogram (Ch1)]
Interval(msec)	40
# of Points	9600
Start Time(min)	0.000
End Time(min)	6.399
R.Time (min)	Intensity
0.00000	4
0.00067	4
0.00133	4
0.00200	4
0.00267	4
0.00333	4
0.00400	4
0.00467	4
0.00533	4
0.00600	4
0.00667	5
0.00733	5
0.00800	5
0.00867	5
0.00933	4
0.01000	4
0.01067	4
0.01133	3
0.01200	2
0.01267	1
0.01333	-0
0.01400	-2
0.01467	-3
0.01533	-5
0.01600	-7
0.01667	-9
0.01733	-11
0.01800	-14
0.01867	-16
0.01933	-19
0.02000	-21
0.02067	-24
0.02133	-27
0.02200	-30
0.02267	-33
0.02333	-35
0.02400	-38
0.02467	-41
0.02533	-44
0.02600	-46
0.02667	-49
0.02733	-52
0.02800	-54
0.02867	-56
0.02933	-58
0.03000	-61
0.03067	-62
0.03133	-64
0.03200	-66
0.03267	-68
0.03333	-69
0.03400	-71
0.03467	-72
0.03533	-73
0.03600	-75
0.03667	-76
0.03733	-77
0.03800	-78
0.03867	-78
0.03933	-79
0.04000	-80
0.04067	-80
0.04133	-81
0.04200	-81
0.04267	-81
0.04333	-81
0.04400	-82
0.04467	-82
0.04533	-82
0.04600	-82
0.04667	-82
0.04733	-82
0.04800	-82
0.04867	-82
0.04933	-82
0.05000	-82
0.05067	-81
0.05133	-81
0.05200	-81
0.05267	-81
0.05333	-81
0.05400	-81
0.05467	-81
0.05533	-81
0.05600	-81
0.05667	-81
0.05733	-80
0.05800	-80
0.05867	-80
0.05933	-80
0.06000	-80
0.06067	-80
0.06133	-80
0.06200	-80
0.06267	-80
0.06333	-80
0.06400	-80
0.06467	-80
0.06533	-80
0.06600	-80
0.06667	-79
0.06733	-79
0.06800	-79
0.06867	-79
0.06933	-79
0.07000	-79
0.07067	-79
0.07133	-79
0.07200	-79
0.07267	-79
0.07333	-79
0.07400	-79
0.07467	-79
0.07533	-79
0.07600	-79
0.07667	-79
0.07733	-79
0.07800	-79
0.07867	-79
0.07933	-79
0.08000	-79
0.08067	-80
0.08133	-80
0.08200	-80
0.08267	-80
0.08333	-80
0.08400	-80
0.08467	-80
0.08533	-79
0.08600	-73
0.08667	-58
0.08733	-34
0.08800	12
0.08867	88
0.08933	210
0.09000	377
0.09067	595
0.09133	867
0.09200	1204
0.09267	1601
0.09333	2054
0.09400	2558
0.09467	3130
0.09533	3769
0.09600	4477
0.09667	5273
0.09733	6132
0.09800	7090
0.09867	8105
0.09933	9161
0.10000	10324
0.10067	11577
0.10133	12901
0.10200	14257
0.10267	15622
0.10333	17052
0.10400	18520
0.10467	20012
0.10533	21488
0.10600	22973
0.10667	24541
0.10733	26083
0.10800	27582
0.10867	29054
0.10933	30459
0.11000	31836
0.11067	33172
0.11133	34465
0.11200	35695
0.11267	36853
0.11333	37998
0.11400	39137
0.11467	40276
0.11533	41394
0.11600	42409
0.11667	43352
0.11733	44236
0.11800	45053
0.11867	45808
0.11933	46512
0.12000	47145
0.12067	47702
0.12133	48219
0.12200	48700
0.12267	49117
0.12333	49470
0.12400	49772
0.12467	50087
0.12533	50383
0.12600	50609
0.12667	50767
0.12733	50891
0.12800	50964
0.12867	50971
0.12933	50927
0.13000	50864
0.13067	50830
0.13133	51084
0.13200	52657
0.13267	58431
0.13333	75228
0.13400	116498
0.13467	206328
0.13533	379289
0.13600	676938
0.13667	1139085
0.13733	1804553
0.13800	2703720
0.13867	3858931
0.13933	5284438
0.14000	6987755
0.14067	8971353
0.14133	11234679
0.14200	13775620
0.14267	16590296
0.14333	19670826
0.14400	23005023
0.14467	26583754
0.14533	30405426
0.14600	34469011
0.14667	38765656
0.14733	43279305
0.14800	47988870
0.14867	52870608
0.14933	57900090
0.15000	63053302
0.15067	68307904
0.15133	73643149
0.15200	79040776
0.15267	84483871
0.15333	89956984
0.15400	95445955
0.15467	100937377
0.15533	106418579
0.15600	111877716
0.15667	117303754
0.15733	122686377
0.15800	128015750
0.15867	133282665
0.15933	138479220
0.16000	143598107
0.16067	148632757
0.16133	153577215
0.16200	158426519
0.16267	163175265
0.16333	167818838
0.16400	172352628
0.16467	176772265
0.16533	181073384
0.16600	185251923
0.16667	189303800
0.16733	193225119
0.16800	197011989
0.16867	200660658
0.16933	204167477
0.17000	207528840
0.17067	210740917
0.17133	213799589
0.17200	216700680
0.17267	219439956
0.17333	222013317
0.17400	224416657
0.17467	226646250
0.17533	228698621
0.17600	230571142
0.17667	232261423
0.17733	233768017
0.17800	235090038
0.17867	236227737
0.17933	237181511
0.18000	237952907
0.18067	238543844
0.18133	238957238
0.18200	239196438
0.18267	239265359
0.18333	239168246
0.18400	238909672
0.18467	238494206
0.18533	237926562
0.18600	237211667
0.18667	236354621
0.18733	235360590
0.18800	234234772
0.18867	232982437
0.18933	231608826
0.19000	230119263
0.19067	228519016
0.19133	226813494
0.19200	225008007
0.19267	223107942
0.19333	221118455
0.19400	219044666
0.19467	216891513
0.19533	214664005
0.19600	212367000
0.19667	210005347
0.19733	207583739
0.19800	205106838
0.19867	202579178
0.19933	200005287
0.20000	197389531
0.20067	194736162
0.20133	192049340
0.20200	189333130
0.20267	186591501
0.20333	183828250
0.20400	181047105
0.20467	178251731
0.20533	175445761
0.20600	172632726
0.20667	169816051
0.20733	166998971
0.20800	164184585
0.20867	161375891
0.20933	158575949
0.21000	155787835
0.21067	153014352
0.21133	150257698
0.21200	147519454
0.21267	144800741
0.21333	142102462
0.21400	139425408
0.21467	136770392
0.21533	134138244
0.21600	131529842
0.21667	128946076
0.21733	126387830
0.21800	123855977
0.21867	121351372
0.21933	118874832
0.22000	116427136
0.22067	114009026
0.22133	111621190
0.22200	109264281
0.22267	106938872
0.22333	104645471
0.22400	102384525
0.22467	100156435
0.22533	97961536
0.22600	95800129
0.22667	93672453
0.22733	91578704
0.22800	89519023
0.22867	87493506
0.22933	85502207
0.23000	83545138
0.23067	81622263
0.23133	79733514
0.23200	77878784
0.23267	76057935
0.23333	74270803
0.23400	72517195
0.23467	70796892
0.23533	69109649
0.23600	67455202
0.23667	65833261
0.23733	64243525
0.23800	62685671
0.23867	61159365
0.23933	59664251
0.24000	58199962
0.24067	56766125
0.24133	55362358
0.24200	53988266
0.24267	52643451
0.24333	51327506
0.24400	50040022
0.24467	48780584
0.24533	47548773
0.24600	46344167
0.24667	45166342
0.24733	44014877
0.24800	42889346
0.24867	41789325
0.24933	40714387
0.25000	39664111
0.25067	38638073
0.25133	37635853
0.25200	36657033
0.25267	35701196
0.25333	34767926
0.25400	33856811
0.25467	32967442
0.25533	32099411
0.25600	31252313
0.25667	30425748
0.25733	29619321
0.25800	28832637
0.25867	28065305
0.25933	27316938
0.26000	26587153
0.26067	25875574
0.26133	25181827
0.26200	24505542
0.26267	23846352
0.26333	23203897
0.26400	22577819
0.26467	21967766
0.26533	21373391
0.26600	20794353
0.26667	20230313
0.26733	19680939
0.26800	19145905
0.26867	18624888
0.26933	18117571
0.27000	17623643
0.27067	17142798
0.27133	16674734
0.27200	16219155
0.27267	15775770
0.27333	15344295
0.27400	14924449
0.27467	14515958
0.27533	14118555
0.27600	13731978
0.27667	13355970
0.27733	12990279
0.27800	12634662
0.27867	12288881
0.27933	11952704
0.28000	11625909
0.28067	11308281
0.28133	10999611
0.28200	10699702
0.28267	10408366
0.28333	10125429
0.28400	9850733
0.28467	9584130
0.28533	9325495
0.28600	9074718
0.28667	8831707
0.28733	8596380
0.28800	8368666
0.28867	8148495
0.28933	7935801
0.29000	7730511
0.29067	7532552
0.29133	7341837
0.29200	7158277
0.29267	6981769
0.29333	6812200
0.29400	6649454
0.29467	6493403
0.29533	6343911
0.29600	6200831
0.29667	6064011
0.29733	5933284
0.29800	5808481
0.29867	5689423
0.29933	5575926
0.30000	5467801
0.30067	5364865
0.30133	5266934
0.30200	5173830
0.30267	5085374
0.30333	5001391
0.30400	4921707
0.30467	4846149
0.30533	4774545
0.30600	4706724
0.30667	4642513
0.30733	4581743
0.30800	4524246
0.30867	4469859
0.30933	4418423
0.31000	4369781
0.31067	4323784
0.31133	4280287
0.31200	4239155
0.31267	4200260
0.31333	4163486
0.31400	4128723
0.31467	4095873
0.31533	4064847
0.31600	4035560
0.31667	4007936
0.31733	3981898
0.31800	3957365
0.31867	3934254
0.31933	3912471
0.32000	3891916
0.32067	3872479
0.32133	3854040
0.32200	3836485
0.32267	3819701
0.32333	3803580
0.32400	3788008
0.32467	3772867
0.32533	3758032
0.32600	3743369
0.32667	3728738
0.32733	3713989
0.32800	3698973
0.32867	3683537
0.32933	3667537
0.33000	3650828
0.33067	3633270
0.33133	3614728
0.33200	3595084
0.33267	3574229
0.33333	3552071
0.33400	3528531
0.33467	3503553
0.33533	3477093
0.33600	3449133
0.33667	3419670
0.33733	3388719
0.33800	3356316
0.33867	3322510
0.33933	3287364
0.34000	3250951
0.34067	3213351
0.34133	3174653
0.34200	3134945
0.34267	3094320
0.34333	3052871
0.34400	3010689
0.34467	2967865
0.34533	2924488
0.34600	2880640
0.34667	2836406
0.34733	2791862
0.34800	2747084
0.34867	2702143
0.34933	2657104
0.35000	2612032
0.35067	2566984
0.35133	2522017
0.35200	2477182
0.35267	2432528
0.35333	2388098
0.35400	2343934
0.35467	2300074
0.35533	2256553
0.35600	2213404
0.35667	2170655
0.35733	2128333
0.35800	2086464
0.35867	2045068
0.35933	2004165
0.36000	1963775
0.36067	1923911
0.36133	1884589
0.36200	1845821
0.36267	1807616
0.36333	1769986
0.36400	1732940
0.36467	1696484
0.36533	1660625
0.36600	1625367
0.36667	1590715
0.36733	1556668
0.36800	1523230
0.36867	1490400
0.36933	1458176
0.37000	1426558
0.37067	1395544
0.37133	1365130
0.37200	1335314
0.37267	1306090
0.37333	1277455
0.37400	1249404
0.37467	1221931
0.37533	1195031
0.37600	1168697
0.37667	1142922
0.37733	1117701
0.37800	1093026
0.37867	1068888
0.37933	1045281
0.38000	1022194
0.38067	999622
0.38133	977557
0.38200	955994
0.38267	934925
0.38333	914344
0.38400	894246
0.38467	874624
0.38533	855470
0.38600	836779
0.38667	818544
0.38733	800761
0.38800	783423
0.38867	766526
0.38933	750067
0.39000	734043
0.39067	718453
0.39133	703295
0.39200	688567
0.39267	674264
0.39333	660379
0.39400	646903
0.39467	633824
0.39533	621135
0.39600	608825
0.39667	596883
0.39733	585299
0.39800	574062
0.39867	563161
0.39933	552587
0.40000	542328
0.40067	532374
0.40133	522715
0.40200	513343
0.40267	504246
0.40333	495417
0.40400	486845
0.40467	478522
0.40533	470441
0.40600	462592
0.40667	454968
0.40733	447562
0.40800	440366
0.40867	433374
0.40933	426577
0.41000	419970
0.41067	413547
0.41133	407301
0.41200	401228
0.41267	395320
0.41333	389573
0.41400	383982
0.41467	378540
0.41533	373244
0.41600	368089
0.41667	363069
0.41733	358181
0.41800	353419
0.41867	348780
0.41933	344259
0.42000	339853
0.42067	335557
0.42133	331369
0.42200	327284
0.42267	323298
0.42333	319409
0.42400	315614
0.42467	311908
0.42533	308289
0.42600	304755
0.42667	301301
0.42733	297926
0.42800	294627
0.42867	291402
0.42933	288248
0.43000	285162
0.43067	282142
0.43133	279187
0.43200	276293
0.43267	273460
0.43333	270684
0.43400	267965
0.43467	265300
0.43533	262688
0.43600	260126
0.43667	257614
0.43733	255150
0.43800	252733
0.43867	250360
0.43933	248031
0.44000	245744
0.44067	243497
0.44133	241291
0.44200	239123
0.44267	236992
0.44333	234898
0.44400	232838
0.44467	230812
0.44533	228820
0.44600	226859
0.44667	224930
0.44733	223031
0.44800	221161
0.44867	219319
0.44933	217505
0.45000	215717
0.45067	213956
0.45133	212219
0.45200	210507
0.45267	208818
0.45333	207152
0.45400	205508
0.45467	203886
0.45533	202286
0.45600	200705
0.45667	199145
0.45733	197603
0.45800	196081
0.45867	194578
0.45933	193093
0.46000	191625
0.46067	190175
0.46133	188742
0.46200	187326
0.46267	185927
0.46333	184544
0.46400	183178
0.46467	181827
0.46533	180492
0.46600	179174
0.46667	177870
0.46733	176583
0.46800	175310
0.46867	174052
0.46933	172809
0.47000	171581
0.47067	170367
0.47133	169168
0.47200	167983
0.47267	166812
0.47333	165654
0.47400	164509
0.47467	163378
0.47533	162259
0.47600	161153
0.47667	160060
0.47733	158978
0.47800	157908
0.47867	156849
0.47933	155802
0.48000	154765
0.48067	153740
0.48133	152725
0.48200	151720
0.48267	150726
0.48333	149742
0.48400	148768
0.48467	147803
0.48533	146847
0.48600	145901
0.48667	144964
0.48733	144036
0.48800	143117
0.48867	142206
0.48933	141304
0.49000	140411
0.49067	139525
0.49133	138648
0.49200	137779
0.49267	136918
0.49333	136064
0.49400	135218
0.49467	134379
0.49533	133548
0.49600	132725
0.49667	131908
0.49733	131099
0.49800	130297
0.49867	129501
0.49933	128713
0.50000	127932
0.50067	127157
0.50133	126389
0.50200	125628
0.50267	124872
0.50333	124124
0.50400	123382
0.50467	122646
0.50533	121917
0.50600	121194
0.50667	120477
0.50733	119767
0.50800	119063
0.50867	118364
0.50933	117672
0.51000	116986
0.51067	116306
0.51133	115631
0.51200	114963
0.51267	114300
0.51333	113642
0.51400	112990
0.51467	112343
0.51533	111702
0.51600	111066
0.51667	110435
0.51733	109809
0.51800	109187
0.51867	108571
0.51933	107959
0.52000	107352
0.52067	106750
0.52133	106152
0.52200	105559
0.52267	104971
0.52333	104387
0.52400	103808
0.52467	103234
0.52533	102664
0.52600	102099
0.52667	101538
0.52733	100981
0.52800	100429
0.52867	99882
0.52933	99339
0.53000	98800
0.53067	98265
0.53133	97735
0.53200	97208
0.53267	96686
0.53333	96168
0.53400	95654
0.53467	95145
0.53533	94639
0.53600	94137
0.53667	93639
0.53733	93145
0.53800	92655
0.53867	92169
0.53933	91686
0.54000	91207
0.54067	90733
0.54133	90262
0.54200	89794
0.54267	89331
0.54333	88871
0.54400	88416
0.54467	87963
0.54533	87515
0.54600	87070
0.54667	86628
0.54733	86191
0.54800	85756
0.54867	85326
0.54933	84898
0.55000	84475
0.55067	84054
0.55133	83637
0.55200	83223
0.55267	82813
0.55333	82406
0.55400	82002
0.55467	81602
0.55533	81204
0.55600	80810
0.55667	80419
0.55733	80031
0.55800	79647
0.55867	79265
0.55933	78887
0.56000	78512
0.56067	78140
0.56133	77771
0.56200	77406
0.56267	77043
0.56333	76684
0.56400	76328
0.56467	75976
0.56533	75627
0.56600	75282
0.56667	74940
0.56733	74602
0.56800	74267
0.56867	73936
0.56933	73609
0.57000	73286
0.57067	72966
0.57133	72651
0.57200	72339
0.57267	72030
0.57333	71726
0.57400	71425
0.57467	71128
0.57533	70834
0.57600	70543
0.57667	70256
0.57733	69971
0.57800	69690
0.57867	69411
0.57933	69134
0.58000	68860
0.58067	68588
0.58133	68319
0.58200	68051
0.58267	67785
0.58333	67521
0.58400	67258
0.58467	66997
0.58533	66738
0.58600	66480
0.58667	66223
0.58733	65968
0.58800	65713
0.58867	65460
0.58933	65208
0.59000	64957
0.59067	64708
0.59133	64459
0.59200	64212
0.59267	63966
0.59333	63721
0.59400	63476
0.59467	63234
0.59533	62992
0.59600	62751
0.59667	62511
0.59733	62273
0.59800	62035
0.59867	61798
0.59933	61563
0.60000	61328
0.60067	61095
0.60133	60863
0.60200	60632
0.60267	60402
0.60333	60174
0.60400	59946
0.60467	59720
0.60533	59495
0.60600	59271
0.60667	59048
0.60733	58827
0.60800	58607
0.60867	58388
0.60933	58170
0.61000	57954
0.61067	57738
0.61133	57524
0.61200	57311
0.61267	57099
0.61333	56888
0.61400	56678
0.61467	56469
0.61533	56262
0.61600	56055
0.61667	55850
0.61733	55645
0.61800	55442
0.61867	55240
0.61933	55039
0.62000	54839
0.62067	54640
0.62133	54443
0.62200	54246
0.62267	54051
0.62333	53858
0.62400	53665
0.62467	53474
0.62533	53285
0.62600	53097
0.62667	52911
0.62733	52726
0.62800	52542
0.62867	52360
0.62933	52180
0.63000	52001
0.63067	51824
0.63133	51648
0.63200	51474
0.63267	51302
0.63333	51131
0.63400	50962
0.63467	50795
0.63533	50629
0.63600	50464
0.63667	50301
0.63733	50139
0.63800	49979
0.63867	49820
0.63933	49662
0.64000	49505
0.64067	49349
0.64133	49194
0.64200	49041
0.64267	48888
0.64333	48737
0.64400	48586
0.64467	48437
0.64533	48288
0.64600	48140
0.64667	47993
0.64733	47848
0.64800	47703
0.64867	47559
0.64933	47417
0.65000	47275
0.65067	47135
0.65133	46996
0.65200	46857
0.65267	46721
0.65333	46585
0.65400	46451
0.65467	46318
0.65533	46186
0.65600	46055
0.65667	45927
0.65733	45799
0.65800	45672
0.65867	45547
0.65933	45423
0.66000	45301
0.66067	45179
0.66133	45059
0.66200	44940
0.66267	44822
0.66333	44705
0.66400	44589
0.66467	44474
0.66533	44360
0.66600	44247
0.66667	44135
0.66733	44024
0.66800	43914
0.66867	43804
0.66933	43695
0.67000	43586
0.67067	43478
0.67133	43370
0.67200	43262
0.67267	43155
0.67333	43048
0.67400	42942
0.67467	42836
0.67533	42730
0.67600	42625
0.67667	42520
0.67733	42416
0.67800	42312
0.67867	42208
0.67933	42105
0.68000	42003
0.68067	41901
0.68133	41799
0.68200	41699
0.68267	41599
0.68333	41499
0.68400	41401
0.68467	41303
0.68533	41207
0.68600	41112
0.68667	41018
0.68733	40926
0.68800	40837
0.68867	40750
0.68933	40666
0.69000	40585
0.69067	40510
0.69133	40440
0.69200	40376
0.69267	40321
0.69333	40274
0.69400	40238
0.69467	40214
0.69533	40204
0.69600	40210
0.69667	40234
0.69733	40277
0.69800	40342
0.69867	40430
0.69933	40543
0.70000	40682
0.70067	40849
0.70133	41046
0.70200	41273
0.70267	41530
0.70333	41817
0.70400	42133
0.70467	42478
0.70533	42851
0.70600	43250
0.70667	43673
0.70733	44116
0.70800	44578
0.70867	45053
0.70933	45538
0.71000	46030
0.71067	46524
0.71133	47016
0.71200	47503
0.71267	47980
0.71333	48445
0.71400	48895
0.71467	49326
0.71533	49737
0.71600	50124
0.71667	50488
0.71733	50825
0.71800	51135
0.71867	51417
0.71933	51671
0.72000	51897
0.72067	52095
0.72133	52265
0.72200	52408
0.72267	52524
0.72333	52614
0.72400	52679
0.72467	52720
0.72533	52738
0.72600	52733
0.72667	52707
0.72733	52661
0.72800	52596
0.72867	52513
0.72933	52412
0.73000	52295
0.73067	52163
0.73133	52016
0.73200	51856
0.73267	51683
0.73333	51499
0.73400	51303
0.73467	51098
0.73533	50883
0.73600	50660
0.73667	50429
0.73733	50190
0.73800	49945
0.73867	49694
0.73933	49438
0.74000	49177
0.74067	48911
0.74133	48642
0.74200	48369
0.74267	48094
0.74333	47816
0.74400	47536
0.74467	47255
0.74533	46972
0.74600	46688
0.74667	46404
0.74733	46120
0.74800	45836
0.74867	45552
0.74933	45269
0.75000	44986
0.75067	44705
0.75133	44424
0.75200	44145
0.75267	43868
0.75333	43593
0.75400	43320
0.75467	43048
0.75533	42780
0.75600	42513
0.75667	42249
0.75733	41988
0.75800	41730
0.75867	41475
0.75933	41223
0.76000	40974
0.76067	40728
0.76133	40485
0.76200	40246
0.76267	40010
0.76333	39778
0.76400	39550
0.76467	39325
0.76533	39103
0.76600	38886
0.76667	38672
0.76733	38462
0.76800	38255
0.76867	38052
0.76933	37853
0.77000	37658
0.77067	37466
0.77133	37278
0.77200	37094
0.77267	36913
0.77333	36736
0.77400	36562
0.77467	36391
0.77533	36224
0.77600	36061
0.77667	35901
0.77733	35743
0.77800	35589
0.77867	35438
0.77933	35290
0.78000	35145
0.78067	35002
0.78133	34863
0.78200	34725
0.78267	34590
0.78333	34458
0.78400	34328
0.78467	34200
0.78533	34074
0.78600	33950
0.78667	33828
0.78733	33709
0.78800	33590
0.78867	33474
0.78933	33359
0.79000	33246
0.79067	33134
0.79133	33024
0.79200	32915
0.79267	32807
0.79333	32700
0.79400	32595
0.79467	32491
0.79533	32388
0.79600	32286
0.79667	32185
0.79733	32086
0.79800	31987
0.79867	31889
0.79933	31793
0.80000	31697
0.80067	31603
0.80133	31509
0.80200	31417
0.80267	31325
0.80333	31234
0.80400	31144
0.80467	31055
0.80533	30967
0.80600	30880
0.80667	30794
0.80733	30708
0.80800	30624
0.80867	30540
0.80933	30457
0.81000	30375
0.81067	30294
0.81133	30213
0.81200	30134
0.81267	30055
0.81333	29977
0.81400	29900
0.81467	29823
0.81533	29748
0.81600	29673
0.81667	29599
0.81733	29526
0.81800	29454
0.81867	29382
0.81933	29311
0.82000	29241
0.82067	29172
0.82133	29103
0.82200	29036
0.82267	28969
0.82333	28903
0.82400	28837
0.82467	28772
0.82533	28708
0.82600	28645
0.82667	28582
0.82733	28520
0.82800	28459
0.82867	28398
0.82933	28338
0.83000	28279
0.83067	28221
0.83133	28163
0.83200	28105
0.83267	28049
0.83333	27993
0.83400	27937
0.83467	27883
0.83533	27828
0.83600	27775
0.83667	27722
0.83733	27669
0.83800	27617
0.83867	27566
0.83933	27515
0.84000	27465
0.84067	27415
0.84133	27366
0.84200	27317
0.84267	27269
0.84333	27221
0.84400	27174
0.84467	27128
0.84533	27081
0.84600	27035
0.84667	26990
0.84733	26945
0.84800	26901
0.84867	26857
0.84933	26813
0.85000	26770
0.85067	26727
0.85133	26684
0.85200	26642
0.85267	26601
0.85333	26559
0.85400	26518
0.85467	26478
0.85533	26438
0.85600	26398
0.85667	26359
0.85733	26320
0.85800	26281
0.85867	26243
0.85933	26205
0.86000	26167
0.86067	26130
0.86133	26093
0.86200	26056
0.86267	26020
0.86333	25984
0.86400	25948
0.86467	25913
0.86533	25877
0.86600	25843
0.86667	25808
0.86733	25774
0.86800	25739
0.86867	25706
0.86933	25672
0.87000	25638
0.87067	25605
0.87133	25572
0.87200	25539
0.87267	25507
0.87333	25475
0.87400	25443
0.87467	25411
0.87533	25380
0.87600	25348
0.87667	25317
0.87733	25286
0.87800	25256
0.87867	25225
0.87933	25195
0.88000	25165
0.88067	25135
0.88133	25105
0.88200	25075
0.88267	25046
0.88333	25017
0.88400	24988
0.88467	24959
0.88533	24930
0.88600	24901
0.88667	24873
0.88733	24844
0.88800	24816
0.88867	24788
0.88933	24760
0.89000	24732
0.89067	24705
0.89133	24677
0.89200	24650
0.89267	24623
0.89333	24596
0.89400	24569
0.89467	24542
0.89533	24516
0.89600	24489
0.89667	24463
0.89733	24436
0.89800	24410
0.89867	24384
0.89933	24358
0.90000	24333
0.90067	24307
0.90133	24281
0.90200	24255
0.90267	24230
0.90333	24204
0.90400	24179
0.90467	24154
0.90533	24129
0.90600	24104
0.90667	24078
0.90733	24053
0.90800	24029
0.90867	24004
0.90933	23979
0.91000	23954
0.91067	23929
0.91133	23905
0.91200	23880
0.91267	23856
0.91333	23831
0.91400	23807
0.91467	23783
0.91533	23758
0.91600	23734
0.91667	23710
0.91733	23686
0.91800	23662
0.91867	23638
0.91933	23614
0.92000	23590
0.92067	23567
0.92133	23543
0.92200	23519
0.92267	23496
0.92333	23473
0.92400	23450
0.92467	23426
0.92533	23404
0.92600	23381
0.92667	23358
0.92733	23336
0.92800	23313
0.92867	23291
0.92933	23269
0.93000	23247
0.93067	23226
0.93133	23204
0.93200	23183
0.93267	23162
0.93333	23141
0.93400	23121
0.93467	23100
0.93533	23080
0.93600	23060
0.93667	23041
0.93733	23021
0.93800	23002
0.93867	22982
0.93933	22963
0.94000	22944
0.94067	22925
0.94133	22907
0.94200	22888
0.94267	22869
0.94333	22851
0.94400	22832
0.94467	22814
0.94533	22796
0.94600	22777
0.94667	22759
0.94733	22741
0.94800	22722
0.94867	22704
0.94933	22685
0.95000	22667
0.95067	22649
0.95133	22630
0.95200	22612
0.95267	22593
0.95333	22575
0.95400	22556
0.95467	22537
0.95533	22519
0.95600	22500
0.95667	22482
0.95733	22464
0.95800	22445
0.95867	22427
0.95933	22409
0.96000	22391
0.96067	22373
0.96133	22355
0.96200	22337
0.96267	22319
0.96333	22301
0.96400	22284
0.96467	22266
0.96533	22249
0.96600	22231
0.96667	22214
0.96733	22197
0.96800	22180
0.96867	22163
0.96933	22146
0.97000	22129
0.97067	22112
0.97133	22095
0.97200	22078
0.97267	22061
0.97333	22044
0.97400	22027
0.97467	22010
0.97533	21993
0.97600	21975
0.97667	21958
0.97733	21940
0.97800	21923
0.97867	21905
0.97933	21887
0.98000	21869
0.98067	21851
0.98133	21832
0.98200	21814
0.98267	21795
0.98333	21776
0.98400	21757
0.98467	21738
0.98533	21719
0.98600	21699
0.98667	21680
0.98733	21660
0.98800	21640
0.98867	21621
0.98933	21601
0.99000	21581
0.99067	21561
0.99133	21541
0.99200	21521
0.99267	21500
0.99333	21480
0.99400	21460
0.99467	21440
0.99533	21420
0.99600	21400
0.99667	21380
0.99733	21360
0.99800	21340
0.99867	21319
0.99933	21299
1.00000	21279
1.00067	21259
1.00133	21239
1.00200	21219
1.00267	21200
1.00333	21180
1.00400	21160
1.00467	21141
1.00533	21121
1.00600	21102
1.00667	21082
1.00733	21063
1.00800	21044
1.00867	21025
1.00933	21006
1.01000	20988
1.01067	20969
1.01133	20951
1.01200	20933
1.01267	20915
1.01333	20898
1.01400	20880
1.01467	20863
1.01533	20847
1.01600	20830
1.01667	20814
1.01733	20798
1.01800	20783
1.01867	20768
1.01933	20753
1.02000	20739
1.02067	20726
1.02133	20713
1.02200	20700
1.02267	20688
1.02333	20677
1.02400	20666
1.02467	20655
1.02533	20645
1.02600	20636
1.02667	20627
1.02733	20618
1.02800	20610
1.02867	20602
1.02933	20594
1.03000	20587
1.03067	20579
1.03133	20573
1.03200	20566
1.03267	20559
1.03333	20553
1.03400	20546
1.03467	20540
1.03533	20533
1.03600	20526
1.03667	20519
1.03733	20512
1.03800	20505
1.03867	20497
1.03933	20489
1.04000	20481
1.04067	20473
1.04133	20464
1.04200	20455
1.04267	20445
1.04333	20436
1.04400	20425
1.04467	20415
1.04533	20404
1.04600	20393
1.04667	20381
1.04733	20369
1.04800	20357
1.04867	20345
1.04933	20332
1.05000	20318
1.05067	20305
1.05133	20291
1.05200	20277
1.05267	20263
1.05333	20249
1.05400	20234
1.05467	20219
1.05533	20204
1.05600	20188
1.05667	20173
1.05733	20157
1.05800	20141
1.05867	20125
1.05933	20109
1.06000	20093
1.06067	20076
1.06133	20060
1.06200	20044
1.06267	20027
1.06333	20010
1.06400	19994
1.06467	19977
1.06533	19960
1.06600	19943
1.06667	19926
1.06733	19910
1.06800	19893
1.06867	19876
1.06933	19859
1.07000	19842
1.07067	19826
1.07133	19809
1.07200	19792
1.07267	19776
1.07333	19759
1.07400	19742
1.07467	19726
1.07533	19709
1.07600	19693
1.07667	19676
1.07733	19660
1.07800	19644
1.07867	19628
1.07933	19613
1.08000	19597
1.08067	19581
1.08133	19566
1.08200	19551
1.08267	19536
1.08333	19520
1.08400	19505
1.08467	19491
1.08533	19476
1.08600	19461
1.08667	19446
1.08733	19432
1.08800	19418
1.08867	19403
1.08933	19389
1.09000	19375
1.09067	19362
1.09133	19348
1.09200	19334
1.09267	19321
1.09333	19307
1.09400	19294
1.09467	19281
1.09533	19268
1.09600	19255
1.09667	19243
1.09733	19230
1.09800	19218
1.09867	19206
1.09933	19194
1.10000	19182
1.10067	19170
1.10133	19158
1.10200	19147
1.10267	19136
1.10333	19125
1.10400	19114
1.10467	19103
1.10533	19093
1.10600	19083
1.10667	19073
1.10733	19063
1.10800	19054
1.10867	19045
1.10933	19035
1.11000	19027
1.11067	19018
1.11133	19009
1.11200	19001
1.11267	18992
1.11333	18984
1.11400	18975
1.11467	18967
1.11533	18959
1.11600	18951
1.11667	18943
1.11733	18935
1.11800	18928
1.11867	18920
1.11933	18912
1.12000	18905
1.12067	18897
1.12133	18889
1.12200	18881
1.12267	18874
1.12333	18866
1.12400	18858
1.12467	18850
1.12533	18842
1.12600	18834
1.12667	18826
1.12733	18818
1.12800	18810
1.12867	18802
1.12933	18794
1.13000	18785
1.13067	18777
1.13133	18769
1.13200	18760
1.13267	18752
1.13333	18743
1.13400	18735
1.13467	18726
1.13533	18717
1.13600	18709
1.13667	18700
1.13733	18691
1.13800	18682
1.13867	18673
1.13933	18664
1.14000	18655
1.14067	18646
1.14133	18636
1.14200	18627
1.14267	18617
1.14333	18608
1.14400	18598
1.14467	18588
1.14533	18578
1.14600	18569
1.14667	18559
1.14733	18549
1.14800	18539
1.14867	18529
1.14933	18519
1.15000	18509
1.15067	18498
1.15133	18488
1.15200	18478
1.15267	18467
1.15333	18457
1.15400	18446
1.15467	18436
1.15533	18425
1.15600	18415
1.15667	18404
1.15733	18394
1.15800	18383
1.15867	18373
1.15933	18362
1.16000	18352
1.16067	18341
1.16133	18331
1.16200	18320
1.16267	18309
1.16333	18299
1.16400	18288
1.16467	18278
1.16533	18268
1.16600	18257
1.16667	18247
1.16733	18236
1.16800	18226
1.16867	18216
1.16933	18206
1.17000	18196
1.17067	18185
1.17133	18175
1.17200	18165
1.17267	18155
1.17333	18145
1.17400	18135
1.17467	18125
1.17533	18116
1.17600	18106
1.17667	18097
1.17733	18087
1.17800	18078
1.17867	18069
1.17933	18059
1.18000	18050
1.18067	18041
1.18133	18032
1.18200	18023
1.18267	18014
1.18333	18005
1.18400	17997
1.18467	17988
1.18533	17980
1.18600	17972
1.18667	17963
1.18733	17955
1.18800	17947
1.18867	17939
1.18933	17932
1.19000	17924
1.19067	17917
1.19133	17910
1.19200	17903
1.19267	17896
1.19333	17889
1.19400	17882
1.19467	17876
1.19533	17870
1.19600	17863
1.19667	17857
1.19733	17852
1.19800	17846
1.19867	17840
1.19933	17835
1.20000	17830
1.20067	17825
1.20133	17820
1.20200	17815
1.20267	17811
1.20333	17806
1.20400	17802
1.20467	17798
1.20533	17794
1.20600	17790
1.20667	17787
1.20733	17783
1.20800	17780
1.20867	17776
1.20933	17773
1.21000	17770
1.21067	17767
1.21133	17765
1.21200	17762
1.21267	17759
1.21333	17757
1.21400	17754
1.21467	17752
1.21533	17749
1.21600	17747
1.21667	17745
1.21733	17743
1.21800	17741
1.21867	17740
1.21933	17738
1.22000	17736
1.22067	17735
1.22133	17733
1.22200	17732
1.22267	17730
1.22333	17729
1.22400	17728
1.22467	17726
1.22533	17725
1.22600	17724
1.22667	17723
1.22733	17723
1.22800	17722
1.22867	17721
1.22933	17721
1.23000	17720
1.23067	17720
1.23133	17720
1.23200	17720
1.23267	17720
1.23333	17719
1.23400	17720
1.23467	17720
1.23533	17720
1.23600	17720
1.23667	17721
1.23733	17721
1.23800	17722
1.23867	17722
1.23933	17723
1.24000	17724
1.24067	17725
1.24133	17727
1.24200	17728
1.24267	17730
1.24333	17732
1.24400	17734
1.24467	17737
1.24533	17740
1.24600	17743
1.24667	17747
1.24733	17750
1.24800	17755
1.24867	17759
1.24933	17765
1.25000	17770
1.25067	17776
1.25133	17783
1.25200	17790
1.25267	17798
1.25333	17806
1.25400	17815
1.25467	17824
1.25533	17833
1.25600	17843
1.25667	17854
1.25733	17864
1.25800	17875
1.25867	17887
1.25933	17898
1.26000	17910
1.26067	17921
1.26133	17933
1.26200	17944
1.26267	17956
1.26333	17967
1.26400	17978
1.26467	17989
1.26533	18000
1.26600	18010
1.26667	18020
1.26733	18029
1.26800	18038
1.26867	18046
1.26933	18053
1.27000	18060
1.27067	18067
1.27133	18072
1.27200	18077
1.27267	18082
1.27333	18085
1.27400	18089
1.27467	18091
1.27533	18093
1.27600	18094
1.27667	18094
1.27733	18094
1.27800	18093
1.27867	18091
1.27933	18089
1.28000	18087
1.28067	18083
1.28133	18079
1.28200	18075
1.28267	18070
1.28333	18064
1.28400	18058
1.28467	18052
1.28533	18045
1.28600	18037
1.28667	18030
1.28733	18022
1.28800	18013
1.28867	18004
1.28933	17995
1.29000	17985
1.29067	17975
1.29133	17965
1.29200	17955
1.29267	17944
1.29333	17933
1.29400	17922
1.29467	17911
1.29533	17899
1.29600	17887
1.29667	17875
1.29733	17863
1.29800	17850
1.29867	17838
1.29933	17825
1.30000	17812
1.30067	17799
1.30133	17786
1.30200	17773
1.30267	17760
1.30333	17747
1.30400	17733
1.30467	17720
1.30533	17707
1.30600	17693
1.30667	17679
1.30733	17665
1.30800	17652
1.30867	17638
1.30933	17624
1.31000	17609
1.31067	17595
1.31133	17581
1.31200	17567
1.31267	17553
1.31333	17538
1.31400	17524
1.31467	17509
1.31533	17495
1.31600	17481
1.31667	17466
1.31733	17451
1.31800	17437
1.31867	17422
1.31933	17408
1.32000	17393
1.32067	17378
1.32133	17363
1.32200	17349
1.32267	17334
1.32333	17319
1.32400	17305
1.32467	17290
1.32533	17275
1.32600	17261
1.32667	17246
1.32733	17231
1.32800	17217
1.32867	17202
1.32933	17188
1.33000	17173
1.33067	17159
1.33133	17144
1.33200	17130
1.33267	17116
1.33333	17101
1.33400	17087
1.33467	17073
1.33533	17059
1.33600	17045
1.33667	17031
1.33733	17017
1.33800	17004
1.33867	16990
1.33933	16976
1.34000	16963
1.34067	16949
1.34133	16936
1.34200	16923
1.34267	16910
1.34333	16897
1.34400	16884
1.34467	16871
1.34533	16858
1.34600	16845
1.34667	16833
1.34733	16820
1.34800	16808
1.34867	16795
1.34933	16783
1.35000	16771
1.35067	16759
1.35133	16747
1.35200	16735
1.35267	16723
1.35333	16711
1.35400	16700
1.35467	16688
1.35533	16677
1.35600	16666
1.35667	16655
1.35733	16644
1.35800	16633
1.35867	16622
1.35933	16611
1.36000	16600
1.36067	16590
1.36133	16579
1.36200	16568
1.36267	16558
1.36333	16548
1.36400	16537
1.36467	16527
1.36533	16517
1.36600	16507
1.36667	16497
1.36733	16486
1.36800	16476
1.36867	16466
1.36933	16457
1.37000	16447
1.37067	16437
1.37133	16427
1.37200	16417
1.37267	16408
1.37333	16398
1.37400	16389
1.37467	16379
1.37533	16370
1.37600	16361
1.37667	16352
1.37733	16343
1.37800	16334
1.37867	16325
1.37933	16316
1.38000	16307
1.38067	16298
1.38133	16290
1.38200	16281
1.38267	16272
1.38333	16264
1.38400	16256
1.38467	16247
1.38533	16239
1.38600	16231
1.38667	16223
1.38733	16215
1.38800	16207
1.38867	16199
1.38933	16192
1.39000	16184
1.39067	16176
1.39133	16168
1.39200	16161
1.39267	16153
1.39333	16146
1.39400	16138
1.39467	16131
1.39533	16124
1.39600	16117
1.39667	16110
1.39733	16103
1.39800	16096
1.39867	16089
1.39933	16082
1.40000	16075
1.40067	16069
1.40133	16062
1.40200	16055
1.40267	16049
1.40333	16042
1.40400	16036
1.40467	16029
1.40533	16023
1.40600	16017
1.40667	16010
1.40733	16003
1.40800	15997
1.40867	15990
1.40933	15984
1.41000	15977
1.41067	15971
1.41133	15964
1.41200	15957
1.41267	15951
1.41333	15944
1.41400	15937
1.41467	15930
1.41533	15924
1.41600	15917
1.41667	15910
1.41733	15903
1.41800	15897
1.41867	15890
1.41933	15883
1.42000	15876
1.42067	15870
1.42133	15863
1.42200	15856
1.42267	15849
1.42333	15843
1.42400	15836
1.42467	15829
1.42533	15822
1.42600	15816
1.42667	15809
1.42733	15803
1.42800	15796
1.42867	15789
1.42933	15783
1.43000	15776
1.43067	15770
1.43133	15764
1.43200	15757
1.43267	15751
1.43333	15745
1.43400	15738
1.43467	15732
1.43533	15726
1.43600	15720
1.43667	15714
1.43733	15709
1.43800	15703
1.43867	15698
1.43933	15693
1.44000	15688
1.44067	15683
1.44133	15678
1.44200	15673
1.44267	15669
1.44333	15664
1.44400	15660
1.44467	15656
1.44533	15652
1.44600	15649
1.44667	15645
1.44733	15642
1.44800	15639
1.44867	15635
1.44933	15632
1.45000	15629
1.45067	15627
1.45133	15624
1.45200	15621
1.45267	15619
1.45333	15616
1.45400	15614
1.45467	15611
1.45533	15609
1.45600	15606
1.45667	15604
1.45733	15601
1.45800	15599
1.45867	15596
1.45933	15594
1.46000	15591
1.46067	15588
1.46133	15585
1.46200	15582
1.46267	15579
1.46333	15576
1.46400	15573
1.46467	15569
1.46533	15566
1.46600	15562
1.46667	15558
1.46733	15554
1.46800	15550
1.46867	15546
1.46933	15541
1.47000	15537
1.47067	15532
1.47133	15528
1.47200	15523
1.47267	15518
1.47333	15513
1.47400	15507
1.47467	15502
1.47533	15497
1.47600	15491
1.47667	15486
1.47733	15480
1.47800	15474
1.47867	15468
1.47933	15462
1.48000	15456
1.48067	15450
1.48133	15444
1.48200	15438
1.48267	15432
1.48333	15426
1.48400	15419
1.48467	15413
1.48533	15407
1.48600	15400
1.48667	15394
1.48733	15388
1.48800	15382
1.48867	15375
1.48933	15369
1.49000	15363
1.49067	15357
1.49133	15351
1.49200	15346
1.49267	15340
1.49333	15334
1.49400	15328
1.49467	15323
1.49533	15317
1.49600	15312
1.49667	15306
1.49733	15301
1.49800	15296
1.49867	15291
1.49933	15285
1.50000	15280
1.50067	15275
1.50133	15270
1.50200	15265
1.50267	15260
1.50333	15255
1.50400	15250
1.50467	15245
1.50533	15240
1.50600	15235
1.50667	15230
1.50733	15225
1.50800	15220
1.50867	15215
1.50933	15210
1.51000	15205
1.51067	15200
1.51133	15195
1.51200	15190
1.51267	15185
1.51333	15179
1.51400	15174
1.51467	15169
1.51533	15164
1.51600	15158
1.51667	15153
1.51733	15147
1.51800	15141
1.51867	15135
1.51933	15130
1.52000	15124
1.52067	15118
1.52133	15112
1.52200	15106
1.52267	15100
1.52333	15094
1.52400	15088
1.52467	15082
1.52533	15076
1.52600	15070
1.52667	15064
1.52733	15058
1.52800	15051
1.52867	15045
1.52933	15039
1.53000	15033
1.53067	15027
1.53133	15021
1.53200	15014
1.53267	15008
1.53333	15002
1.53400	14995
1.53467	14989
1.53533	14983
1.53600	14977
1.53667	14970
1.53733	14964
1.53800	14958
1.53867	14952
1.53933	14946
1.54000	14940
1.54067	14934
1.54133	14928
1.54200	14922
1.54267	14916
1.54333	14910
1.54400	14904
1.54467	14898
1.54533	14893
1.54600	14887
1.54667	14881
1.54733	14875
1.54800	14870
1.54867	14864
1.54933	14858
1.55000	14853
1.55067	14847
1.55133	14841
1.55200	14836
1.55267	14830
1.55333	14824
1.55400	14819
1.55467	14813
1.55533	14807
1.55600	14802
1.55667	14796
1.55733	14790
1.55800	14785
1.55867	14779
1.55933	14773
1.56000	14768
1.56067	14762
1.56133	14756
1.56200	14751
1.56267	14745
1.56333	14739
1.56400	14734
1.56467	14728
1.56533	14722
1.56600	14716
1.56667	14711
1.56733	14705
1.56800	14699
1.56867	14694
1.56933	14688
1.57000	14682
1.57067	14677
1.57133	14671
1.57200	14666
1.57267	14660
1.57333	14655
1.57400	14649
1.57467	14644
1.57533	14638
1.57600	14633
1.57667	14628
1.57733	14623
1.57800	14618
1.57867	14613
1.57933	14608
1.58000	14603
1.58067	14598
1.58133	14593
1.58200	14589
1.58267	14584
1.58333	14579
1.58400	14575
1.58467	14571
1.58533	14566
1.58600	14562
1.58667	14557
1.58733	14553
1.58800	14549
1.58867	14545
1.58933	14540
1.59000	14536
1.59067	14532
1.59133	14528
1.59200	14524
1.59267	14520
1.59333	14516
1.59400	14512
1.59467	14508
1.59533	14503
1.59600	14499
1.59667	14495
1.59733	14491
1.59800	14487
1.59867	14483
1.59933	14479
1.60000	14475
1.60067	14471
1.60133	14467
1.60200	14462
1.60267	14458
1.60333	14454
1.60400	14450
1.60467	14445
1.60533	14441
1.60600	14437
1.60667	14433
1.60733	14428
1.60800	14424
1.60867	14420
1.60933	14415
1.61000	14411
1.61067	14407
1.61133	14402
1.61200	14398
1.61267	14394
1.61333	14390
1.61400	14386
1.61467	14381
1.61533	14377
1.61600	14374
1.61667	14370
1.61733	14366
1.61800	14362
1.61867	14358
1.61933	14355
1.62000	14351
1.62067	14347
1.62133	14344
1.62200	14340
1.62267	14337
1.62333	14333
1.62400	14330
1.62467	14327
1.62533	14323
1.62600	14320
1.62667	14317
1.62733	14314
1.62800	14311
1.62867	14307
1.62933	14304
1.63000	14301
1.63067	14298
1.63133	14295
1.63200	14292
1.63267	14289
1.63333	14286
1.63400	14283
1.63467	14280
1.63533	14277
1.63600	14274
1.63667	14271
1.63733	14268
1.63800	14265
1.63867	14262
1.63933	14259
1.64000	14256
1.64067	14253
1.64133	14250
1.64200	14247
1.64267	14244
1.64333	14241
1.64400	14237
1.64467	14234
1.64533	14231
1.64600	14228
1.64667	14225
1.64733	14222
1.64800	14219
1.64867	14216
1.64933	14213
1.65000	14210
1.65067	14207
1.65133	14204
1.65200	14201
1.65267	14198
1.65333	14195
1.65400	14192
1.65467	14189
1.65533	14187
1.65600	14184
1.65667	14181
1.65733	14178
1.65800	14175
1.65867	14172
1.65933	14170
1.66000	14167
1.66067	14164
1.66133	14161
1.66200	14159
1.66267	14156
1.66333	14153
1.66400	14151
1.66467	14148
1.66533	14145
1.66600	14143
1.66667	14140
1.66733	14137
1.66800	14134
1.66867	14132
1.66933	14129
1.67000	14126
1.67067	14123
1.67133	14120
1.67200	14117
1.67267	14114
1.67333	14111
1.67400	14108
1.67467	14105
1.67533	14102
1.67600	14099
1.67667	14095
1.67733	14092
1.67800	14089
1.67867	14085
1.67933	14082
1.68000	14078
1.68067	14075
1.68133	14071
1.68200	14067
1.68267	14064
1.68333	14060
1.68400	14056
1.68467	14052
1.68533	14048
1.68600	14043
1.68667	14039
1.68733	14035
1.68800	14031
1.68867	14026
1.68933	14022
1.69000	14018
1.69067	14013
1.69133	14009
1.69200	14004
1.69267	14000
1.69333	13996
1.69400	13991
1.69467	13987
1.69533	13982
1.69600	13978
1.69667	13974
1.69733	13969
1.69800	13965
1.69867	13960
1.69933	13956
1.70000	13951
1.70067	13947
1.70133	13942
1.70200	13938
1.70267	13933
1.70333	13929
1.70400	13924
1.70467	13920
1.70533	13915
1.70600	13911
1.70667	13906
1.70733	13902
1.70800	13897
1.70867	13893
1.70933	13888
1.71000	13884
1.71067	13879
1.71133	13875
1.71200	13871
1.71267	13867
1.71333	13863
1.71400	13859
1.71467	13855
1.71533	13852
1.71600	13849
1.71667	13846
1.71733	13843
1.71800	13841
1.71867	13840
1.71933	13839
1.72000	13839
1.72067	13840
1.72133	13843
1.72200	13847
1.72267	13854
1.72333	13863
1.72400	13875
1.72467	13891
1.72533	13912
1.72600	13938
1.72667	13971
1.72733	14012
1.72800	14063
1.72867	14125
1.72933	14201
1.73000	14292
1.73067	14403
1.73133	14535
1.73200	14692
1.73267	14879
1.73333	15100
1.73400	15361
1.73467	15669
1.73533	16028
1.73600	16449
1.73667	16937
1.73733	17503
1.73800	18155
1.73867	18904
1.73933	19762
1.74000	20741
1.74067	21856
1.74133	23119
1.74200	24545
1.74267	26152
1.74333	27956
1.74400	29975
1.74467	32225
1.74533	34725
1.74600	37494
1.74667	40549
1.74733	43910
1.74800	47595
1.74867	51626
1.74933	56021
1.75000	60800
1.75067	65986
1.75133	71598
1.75200	77663
1.75267	84203
1.75333	91243
1.75400	98804
1.75467	106907
1.75533	115572
1.75600	124818
1.75667	134661
1.75733	145113
1.75800	156190
1.75867	167908
1.75933	180276
1.76000	193303
1.76067	206992
1.76133	221351
1.76200	236387
1.76267	252105
1.76333	268507
1.76400	285592
1.76467	303356
1.76533	321789
1.76600	340882
1.76667	360620
1.76733	380986
1.76800	401954
1.76867	423486
1.76933	445539
1.77000	468065
1.77067	491017
1.77133	514340
1.77200	537966
1.77267	561827
1.77333	585848
1.77400	609948
1.77467	634035
1.77533	658008
1.77600	681755
1.77667	705162
1.77733	728113
1.77800	750495
1.77867	772196
1.77933	793106
1.78000	813119
1.78067	832137
1.78133	850071
1.78200	866840
1.78267	882376
1.78333	896624
1.78400	909537
1.78467	921087
1.78533	931253
1.78600	940031
1.78667	947426
1.78733	953457
1.78800	958149
1.78867	961537
1.78933	963664
1.79000	964575
1.79067	964322
1.79133	962960
1.79200	960546
1.79267	957136
1.79333	952788
1.79400	947561
1.79467	941513
1.79533	934700
1.79600	927178
1.79667	919000
1.79733	910219
1.79800	900886
1.79867	891047
1.79933	880750
1.80000	870039
1.80067	858955
1.80133	847538
1.80200	835826
1.80267	823855
1.80333	811658
1.80400	799267
1.80467	786712
1.80533	774021
1.80600	761220
1.80667	748334
1.80733	735386
1.80800	722398
1.80867	709389
1.80933	696379
1.81000	683385
1.81067	670422
1.81133	657507
1.81200	644653
1.81267	631872
1.81333	619178
1.81400	606579
1.81467	594087
1.81533	581711
1.81600	569459
1.81667	557339
1.81733	545357
1.81800	533519
1.81867	521832
1.81933	510299
1.82000	498927
1.82067	487718
1.82133	476675
1.82200	465803
1.82267	455102
1.82333	444576
1.82400	434226
1.82467	424054
1.82533	414060
1.82600	404245
1.82667	394610
1.82733	385154
1.82800	375878
1.82867	366781
1.82933	357863
1.83000	349123
1.83067	340559
1.83133	332172
1.83200	323959
1.83267	315918
1.83333	308050
1.83400	300351
1.83467	292819
1.83533	285454
1.83600	278253
1.83667	271214
1.83733	264335
1.83800	257613
1.83867	251047
1.83933	244635
1.84000	238373
1.84067	232260
1.84133	226293
1.84200	220470
1.84267	214788
1.84333	209246
1.84400	203839
1.84467	198566
1.84533	193425
1.84600	188413
1.84667	183527
1.84733	178765
1.84800	174124
1.84867	169603
1.84933	165198
1.85000	160907
1.85067	156728
1.85133	152658
1.85200	148696
1.85267	144838
1.85333	141083
1.85400	137428
1.85467	133871
1.85533	130409
1.85600	127042
1.85667	123765
1.85733	120578
1.85800	117477
1.85867	114462
1.85933	111530
1.86000	108678
1.86067	105906
1.86133	103211
1.86200	100590
1.86267	98043
1.86333	95568
1.86400	93161
1.86467	90823
1.86533	88551
1.86600	86343
1.86667	84197
1.86733	82113
1.86800	80088
1.86867	78121
1.86933	76211
1.87000	74355
1.87067	72553
1.87133	70802
1.87200	69102
1.87267	67452
1.87333	65849
1.87400	64292
1.87467	62781
1.87533	61314
1.87600	59890
1.87667	58507
1.87733	57164
1.87800	55861
1.87867	54595
1.87933	53367
1.88000	52175
1.88067	51018
1.88133	49894
1.88200	48804
1.88267	47746
1.88333	46719
1.88400	45723
1.88467	44756
1.88533	43818
1.88600	42907
1.88667	42024
1.88733	41167
1.88800	40335
1.88867	39528
1.88933	38746
1.89000	37987
1.89067	37250
1.89133	36536
1.89200	35843
1.89267	35171
1.89333	34519
1.89400	33887
1.89467	33274
1.89533	32680
1.89600	32104
1.89667	31545
1.89733	31003
1.89800	30478
1.89867	29968
1.89933	29475
1.90000	28996
1.90067	28532
1.90133	28082
1.90200	27646
1.90267	27223
1.90333	26813
1.90400	26416
1.90467	26030
1.90533	25657
1.90600	25295
1.90667	24944
1.90733	24604
1.90800	24274
1.90867	23955
1.90933	23645
1.91000	23345
1.91067	23054
1.91133	22772
1.91200	22499
1.91267	22234
1.91333	21978
1.91400	21729
1.91467	21488
1.91533	21255
1.91600	21028
1.91667	20809
1.91733	20596
1.91800	20390
1.91867	20190
1.91933	19996
1.92000	19809
1.92067	19627
1.92133	19450
1.92200	19279
1.92267	19113
1.92333	18952
1.92400	18796
1.92467	18645
1.92533	18498
1.92600	18356
1.92667	18218
1.92733	18084
1.92800	17954
1.92867	17827
1.92933	17705
1.93000	17586
1.93067	17470
1.93133	17358
1.93200	17249
1.93267	17143
1.93333	17040
1.93400	16940
1.93467	16843
1.93533	16749
1.93600	16657
1.93667	16568
1.93733	16482
1.93800	16398
1.93867	16316
1.93933	16237
1.94000	16160
1.94067	16085
1.94133	16012
1.94200	15941
1.94267	15872
1.94333	15805
1.94400	15739
1.94467	15676
1.94533	15614
1.94600	15554
1.94667	15496
1.94733	15438
1.94800	15383
1.94867	15329
1.94933	15276
1.95000	15225
1.95067	15175
1.95133	15126
1.95200	15079
1.95267	15032
1.95333	14987
1.95400	14943
1.95467	14900
1.95533	14858
1.95600	14817
1.95667	14777
1.95733	14738
1.95800	14699
1.95867	14662
1.95933	14626
1.96000	14590
1.96067	14555
1.96133	14521
1.96200	14488
1.96267	14455
1.96333	14424
1.96400	14393
1.96467	14362
1.96533	14332
1.96600	14303
1.96667	14274
1.96733	14246
1.96800	14219
1.96867	14192
1.96933	14166
1.97000	14140
1.97067	14115
1.97133	14091
1.97200	14067
1.97267	14043
1.97333	14020
1.97400	13997
1.97467	13975
1.97533	13953
1.97600	13932
1.97667	13911
1.97733	13891
1.97800	13870
1.97867	13851
1.97933	13831
1.98000	13812
1.98067	13794
1.98133	13776
1.98200	13758
1.98267	13740
1.98333	13723
1.98400	13706
1.98467	13689
1.98533	13673
1.98600	13657
1.98667	13641
1.98733	13625
1.98800	13610
1.98867	13595
1.98933	13580
1.99000	13565
1.99067	13551
1.99133	13537
1.99200	13523
1.99267	13510
1.99333	13496
1.99400	13483
1.99467	13470
1.99533	13457
1.99600	13444
1.99667	13432
1.99733	13419
1.99800	13407
1.99867	13395
1.99933	13384
2.00000	13372
2.00067	13361
2.00133	13350
2.00200	13338
2.00267	13328
2.00333	13317
2.00400	13306
2.00467	13296
2.00533	13285
2.00600	13275
2.00667	13264
2.00733	13254
2.00800	13244
2.00867	13234
2.00933	13224
2.01000	13214
2.01067	13205
2.01133	13195
2.01200	13185
2.01267	13175
2.01333	13166
2.01400	13156
2.01467	13147
2.01533	13137
2.01600	13128
2.01667	13118
2.01733	13109
2.01800	13100
2.01867	13091
2.01933	13081
2.02000	13072
2.02067	13063
2.02133	13054
2.02200	13045
2.02267	13036
2.02333	13027
2.02400	13018
2.02467	13009
2.02533	13001
2.02600	12992
2.02667	12983
2.02733	12974
2.02800	12966
2.02867	12957
2.02933	12949
2.03000	12940
2.03067	12932
2.03133	12924
2.03200	12915
2.03267	12907
2.03333	12899
2.03400	12891
2.03467	12883
2.03533	12875
2.03600	12867
2.03667	12859
2.03733	12851
2.03800	12843
2.03867	12835
2.03933	12827
2.04000	12820
2.04067	12812
2.04133	12805
2.04200	12797
2.04267	12790
2.04333	12782
2.04400	12775
2.04467	12768
2.04533	12760
2.04600	12753
2.04667	12746
2.04733	12739
2.04800	12731
2.04867	12724
2.04933	12717
2.05000	12710
2.05067	12703
2.05133	12696
2.05200	12689
2.05267	12682
2.05333	12675
2.05400	12668
2.05467	12662
2.05533	12655
2.05600	12648
2.05667	12641
2.05733	12635
2.05800	12628
2.05867	12621
2.05933	12615
2.06000	12608
2.06067	12602
2.06133	12595
2.06200	12589
2.06267	12583
2.06333	12577
2.06400	12570
2.06467	12564
2.06533	12558
2.06600	12552
2.06667	12546
2.06733	12540
2.06800	12534
2.06867	12528
2.06933	12522
2.07000	12516
2.07067	12510
2.07133	12505
2.07200	12499
2.07267	12493
2.07333	12487
2.07400	12481
2.07467	12476
2.07533	12470
2.07600	12465
2.07667	12459
2.07733	12454
2.07800	12448
2.07867	12442
2.07933	12437
2.08000	12431
2.08067	12426
2.08133	12420
2.08200	12414
2.08267	12409
2.08333	12403
2.08400	12398
2.08467	12392
2.08533	12387
2.08600	12381
2.08667	12376
2.08733	12370
2.08800	12365
2.08867	12360
2.08933	12354
2.09000	12349
2.09067	12344
2.09133	12339
2.09200	12333
2.09267	12328
2.09333	12323
2.09400	12318
2.09467	12312
2.09533	12307
2.09600	12302
2.09667	12297
2.09733	12291
2.09800	12286
2.09867	12281
2.09933	12276
2.10000	12271
2.10067	12266
2.10133	12261
2.10200	12255
2.10267	12250
2.10333	12245
2.10400	12240
2.10467	12235
2.10533	12230
2.10600	12225
2.10667	12220
2.10733	12214
2.10800	12209
2.10867	12204
2.10933	12199
2.11000	12194
2.11067	12189
2.11133	12184
2.11200	12179
2.11267	12174
2.11333	12169
2.11400	12164
2.11467	12159
2.11533	12154
2.11600	12149
2.11667	12144
2.11733	12139
2.11800	12134
2.11867	12129
2.11933	12124
2.12000	12119
2.12067	12114
2.12133	12109
2.12200	12104
2.12267	12099
2.12333	12095
2.12400	12090
2.12467	12085
2.12533	12081
2.12600	12076
2.12667	12071
2.12733	12066
2.12800	12062
2.12867	12057
2.12933	12052
2.13000	12048
2.13067	12043
2.13133	12038
2.13200	12034
2.13267	12029
2.13333	12025
2.13400	12020
2.13467	12016
2.13533	12011
2.13600	12006
2.13667	12002
2.13733	11997
2.13800	11993
2.13867	11988
2.13933	11984
2.14000	11979
2.14067	11975
2.14133	11970
2.14200	11966
2.14267	11961
2.14333	11957
2.14400	11952
2.14467	11948
2.14533	11943
2.14600	11939
2.14667	11934
2.14733	11930
2.14800	11925
2.14867	11921
2.14933	11917
2.15000	11912
2.15067	11908
2.15133	11903
2.15200	11899
2.15267	11894
2.15333	11890
2.15400	11886
2.15467	11881
2.15533	11877
2.15600	11872
2.15667	11868
2.15733	11864
2.15800	11859
2.15867	11855
2.15933	11851
2.16000	11846
2.16067	11842
2.16133	11838
2.16200	11834
2.16267	11829
2.16333	11825
2.16400	11821
2.16467	11816
2.16533	11812
2.16600	11808
2.16667	11804
2.16733	11799
2.16800	11795
2.16867	11791
2.16933	11787
2.17000	11782
2.17067	11778
2.17133	11774
2.17200	11770
2.17267	11766
2.17333	11762
2.17400	11758
2.17467	11754
2.17533	11751
2.17600	11747
2.17667	11743
2.17733	11739
2.17800	11735
2.17867	11731
2.17933	11728
2.18000	11724
2.18067	11720
2.18133	11716
2.18200	11713
2.18267	11709
2.18333	11705
2.18400	11701
2.18467	11698
2.18533	11694
2.18600	11690
2.18667	11686
2.18733	11683
2.18800	11679
2.18867	11675
2.18933	11671
2.19000	11668
2.19067	11664
2.19133	11660
2.19200	11657
2.19267	11653
2.19333	11649
2.19400	11646
2.19467	11642
2.19533	11638
2.19600	11635
2.19667	11631
2.19733	11628
2.19800	11624
2.19867	11621
2.19933	11618
2.20000	11615
2.20067	11612
2.20133	11609
2.20200	11606
2.20267	11603
2.20333	11600
2.20400	11597
2.20467	11594
2.20533	11591
2.20600	11589
2.20667	11586
2.20733	11584
2.20800	11581
2.20867	11579
2.20933	11577
2.21000	11574
2.21067	11572
2.21133	11570
2.21200	11568
2.21267	11566
2.21333	11565
2.21400	11563
2.21467	11562
2.21533	11560
2.21600	11559
2.21667	11558
2.21733	11557
2.21800	11556
2.21867	11556
2.21933	11555
2.22000	11555
2.22067	11554
2.22133	11554
2.22200	11554
2.22267	11553
2.22333	11553
2.22400	11553
2.22467	11553
2.22533	11553
2.22600	11553
2.22667	11553
2.22733	11553
2.22800	11553
2.22867	11552
2.22933	11552
2.23000	11552
2.23067	11552
2.23133	11551
2.23200	11551
2.23267	11550
2.23333	11549
2.23400	11548
2.23467	11547
2.23533	11546
2.23600	11545
2.23667	11544
2.23733	11542
2.23800	11541
2.23867	11539
2.23933	11538
2.24000	11536
2.24067	11534
2.24133	11532
2.24200	11530
2.24267	11527
2.24333	11525
2.24400	11523
2.24467	11520
2.24533	11518
2.24600	11515
2.24667	11512
2.24733	11510
2.24800	11507
2.24867	11504
2.24933	11501
2.25000	11498
2.25067	11495
2.25133	11492
2.25200	11489
2.25267	11487
2.25333	11484
2.25400	11481
2.25467	11478
2.25533	11475
2.25600	11472
2.25667	11469
2.25733	11465
2.25800	11462
2.25867	11459
2.25933	11456
2.26000	11452
2.26067	11449
2.26133	11445
2.26200	11442
2.26267	11439
2.26333	11435
2.26400	11432
2.26467	11428
2.26533	11425
2.26600	11421
2.26667	11417
2.26733	11413
2.26800	11410
2.26867	11406
2.26933	11402
2.27000	11398
2.27067	11394
2.27133	11390
2.27200	11386
2.27267	11382
2.27333	11377
2.27400	11373
2.27467	11369
2.27533	11365
2.27600	11361
2.27667	11357
2.27733	11352
2.27800	11348
2.27867	11344
2.27933	11340
2.28000	11335
2.28067	11331
2.28133	11327
2.28200	11322
2.28267	11318
2.28333	11313
2.28400	11309
2.28467	11305
2.28533	11300
2.28600	11296
2.28667	11291
2.28733	11287
2.28800	11282
2.28867	11278
2.28933	11274
2.29000	11269
2.29067	11265
2.29133	11261
2.29200	11256
2.29267	11252
2.29333	11248
2.29400	11243
2.29467	11239
2.29533	11235
2.29600	11231
2.29667	11227
2.29733	11222
2.29800	11218
2.29867	11214
2.29933	11210
2.30000	11206
2.30067	11202
2.30133	11198
2.30200	11194
2.30267	11190
2.30333	11186
2.30400	11182
2.30467	11178
2.30533	11174
2.30600	11170
2.30667	11167
2.30733	11163
2.30800	11159
2.30867	11156
2.30933	11152
2.31000	11149
2.31067	11145
2.31133	11141
2.31200	11138
2.31267	11134
2.31333	11131
2.31400	11127
2.31467	11124
2.31533	11121
2.31600	11118
2.31667	11115
2.31733	11112
2.31800	11108
2.31867	11106
2.31933	11103
2.32000	11100
2.32067	11097
2.32133	11094
2.32200	11091
2.32267	11089
2.32333	11086
2.32400	11083
2.32467	11081
2.32533	11078
2.32600	11075
2.32667	11073
2.32733	11070
2.32800	11068
2.32867	11065
2.32933	11063
2.33000	11061
2.33067	11058
2.33133	11056
2.33200	11054
2.33267	11052
2.33333	11050
2.33400	11047
2.33467	11045
2.33533	11043
2.33600	11042
2.33667	11040
2.33733	11038
2.33800	11036
2.33867	11035
2.33933	11033
2.34000	11031
2.34067	11030
2.34133	11028
2.34200	11027
2.34267	11025
2.34333	11024
2.34400	11023
2.34467	11021
2.34533	11020
2.34600	11019
2.34667	11018
2.34733	11016
2.34800	11015
2.34867	11014
2.34933	11013
2.35000	11012
2.35067	11011
2.35133	11010
2.35200	11008
2.35267	11007
2.35333	11006
2.35400	11005
2.35467	11004
2.35533	11004
2.35600	11003
2.35667	11002
2.35733	11001
2.35800	11000
2.35867	10999
2.35933	10998
2.36000	10997
2.36067	10996
2.36133	10995
2.36200	10994
2.36267	10993
2.36333	10992
2.36400	10991
2.36467	10990
2.36533	10988
2.36600	10987
2.36667	10986
2.36733	10984
2.36800	10983
2.36867	10981
2.36933	10980
2.37000	10978
2.37067	10977
2.37133	10975
2.37200	10973
2.37267	10971
2.37333	10970
2.37400	10968
2.37467	10966
2.37533	10964
2.37600	10963
2.37667	10961
2.37733	10959
2.37800	10957
2.37867	10955
2.37933	10953
2.38000	10951
2.38067	10949
2.38133	10947
2.38200	10945
2.38267	10943
2.38333	10941
2.38400	10939
2.38467	10937
2.38533	10934
2.38600	10932
2.38667	10930
2.38733	10927
2.38800	10925
2.38867	10923
2.38933	10920
2.39000	10918
2.39067	10915
2.39133	10913
2.39200	10910
2.39267	10908
2.39333	10905
2.39400	10903
2.39467	10900
2.39533	10898
2.39600	10896
2.39667	10893
2.39733	10891
2.39800	10889
2.39867	10886
2.39933	10884
2.40000	10882
2.40067	10879
2.40133	10877
2.40200	10875
2.40267	10873
2.40333	10870
2.40400	10868
2.40467	10866
2.40533	10864
2.40600	10862
2.40667	10860
2.40733	10857
2.40800	10855
2.40867	10853
2.40933	10851
2.41000	10849
2.41067	10847
2.41133	10844
2.41200	10842
2.41267	10840
2.41333	10838
2.41400	10836
2.41467	10833
2.41533	10831
2.41600	10829
2.41667	10827
2.41733	10825
2.41800	10823
2.41867	10820
2.41933	10818
2.42000	10816
2.42067	10814
2.42133	10811
2.42200	10809
2.42267	10807
2.42333	10805
2.42400	10802
2.42467	10800
2.42533	10798
2.42600	10795
2.42667	10793
2.42733	10790
2.42800	10788
2.42867	10785
2.42933	10783
2.43000	10780
2.43067	10778
2.43133	10775
2.43200	10772
2.43267	10769
2.43333	10767
2.43400	10764
2.43467	10761
2.43533	10758
2.43600	10755
2.43667	10752
2.43733	10749
2.43800	10746
2.43867	10743
2.43933	10739
2.44000	10736
2.44067	10733
2.44133	10730
2.44200	10726
2.44267	10723
2.44333	10720
2.44400	10716
2.44467	10713
2.44533	10709
2.44600	10706
2.44667	10703
2.44733	10699
2.44800	10696
2.44867	10692
2.44933	10689
2.45000	10686
2.45067	10682
2.45133	10679
2.45200	10675
2.45267	10672
2.45333	10668
2.45400	10665
2.45467	10661
2.45533	10657
2.45600	10654
2.45667	10650
2.45733	10646
2.45800	10643
2.45867	10639
2.45933	10635
2.46000	10632
2.46067	10628
2.46133	10624
2.46200	10620
2.46267	10617
2.46333	10613
2.46400	10609
2.46467	10605
2.46533	10602
2.46600	10598
2.46667	10594
2.46733	10591
2.46800	10587
2.46867	10583
2.46933	10580
2.47000	10576
2.47067	10572
2.47133	10569
2.47200	10565
2.47267	10561
2.47333	10558
2.47400	10554
2.47467	10550
2.47533	10546
2.47600	10543
2.47667	10539
2.47733	10535
2.47800	10532
2.47867	10528
2.47933	10524
2.48000	10521
2.48067	10517
2.48133	10513
2.48200	10509
2.48267	10506
2.48333	10502
2.48400	10498
2.48467	10495
2.48533	10491
2.48600	10487
2.48667	10484
2.48733	10480
2.48800	10476
2.48867	10472
2.48933	10469
2.49000	10465
2.49067	10461
2.49133	10457
2.49200	10454
2.49267	10450
2.49333	10447
2.49400	10443
2.49467	10439
2.49533	10436
2.49600	10432
2.49667	10429
2.49733	10425
2.49800	10421
2.49867	10418
2.49933	10414
2.50000	10411
2.50067	10407
2.50133	10403
2.50200	10400
2.50267	10396
2.50333	10392
2.50400	10389
2.50467	10385
2.50533	10381
2.50600	10378
2.50667	10374
2.50733	10370
2.50800	10367
2.50867	10363
2.50933	10359
2.51000	10355
2.51067	10352
2.51133	10348
2.51200	10344
2.51267	10340
2.51333	10336
2.51400	10332
2.51467	10328
2.51533	10324
2.51600	10321
2.51667	10317
2.51733	10313
2.51800	10309
2.51867	10305
2.51933	10301
2.52000	10297
2.52067	10293
2.52133	10289
2.52200	10285
2.52267	10281
2.52333	10277
2.52400	10273
2.52467	10269
2.52533	10265
2.52600	10261
2.52667	10257
2.52733	10253
2.52800	10249
2.52867	10245
2.52933	10241
2.53000	10237
2.53067	10233
2.53133	10229
2.53200	10225
2.53267	10221
2.53333	10217
2.53400	10213
2.53467	10209
2.53533	10205
2.53600	10201
2.53667	10197
2.53733	10193
2.53800	10189
2.53867	10185
2.53933	10182
2.54000	10178
2.54067	10174
2.54133	10170
2.54200	10166
2.54267	10163
2.54333	10159
2.54400	10155
2.54467	10151
2.54533	10148
2.54600	10144
2.54667	10140
2.54733	10137
2.54800	10133
2.54867	10129
2.54933	10126
2.55000	10122
2.55067	10119
2.55133	10115
2.55200	10112
2.55267	10108
2.55333	10104
2.55400	10101
2.55467	10097
2.55533	10094
2.55600	10090
2.55667	10087
2.55733	10084
2.55800	10080
2.55867	10077
2.55933	10073
2.56000	10070
2.56067	10067
2.56133	10063
2.56200	10060
2.56267	10057
2.56333	10054
2.56400	10050
2.56467	10047
2.56533	10044
2.56600	10041
2.56667	10037
2.56733	10034
2.56800	10031
2.56867	10028
2.56933	10025
2.57000	10022
2.57067	10019
2.57133	10015
2.57200	10012
2.57267	10009
2.57333	10006
2.57400	10003
2.57467	10000
2.57533	9997
2.57600	9994
2.57667	9991
2.57733	9988
2.57800	9985
2.57867	9982
2.57933	9979
2.58000	9975
2.58067	9972
2.58133	9969
2.58200	9966
2.58267	9963
2.58333	9960
2.58400	9958
2.58467	9955
2.58533	9952
2.58600	9949
2.58667	9946
2.58733	9943
2.58800	9940
2.58867	9937
2.58933	9935
2.59000	9932
2.59067	9929
2.59133	9926
2.59200	9923
2.59267	9921
2.59333	9918
2.59400	9915
2.59467	9912
2.59533	9910
2.59600	9907
2.59667	9904
2.59733	9902
2.59800	9899
2.59867	9896
2.59933	9894
2.60000	9891
2.60067	9889
2.60133	9886
2.60200	9883
2.60267	9881
2.60333	9878
2.60400	9876
2.60467	9873
2.60533	9871
2.60600	9868
2.60667	9865
2.60733	9863
2.60800	9860
2.60867	9858
2.60933	9855
2.61000	9853
2.61067	9850
2.61133	9848
2.61200	9845
2.61267	9843
2.61333	9840
2.61400	9838
2.61467	9835
2.61533	9833
2.61600	9830
2.61667	9828
2.61733	9825
2.61800	9823
2.61867	9820
2.61933	9818
2.62000	9815
2.62067	9813
2.62133	9810
2.62200	9808
2.62267	9805
2.62333	9803
2.62400	9800
2.62467	9798
2.62533	9795
2.62600	9793
2.62667	9790
2.62733	9787
2.62800	9785
2.62867	9782
2.62933	9779
2.63000	9777
2.63067	9774
2.63133	9771
2.63200	9769
2.63267	9766
2.63333	9764
2.63400	9761
2.63467	9758
2.63533	9756
2.63600	9753
2.63667	9751
2.63733	9748
2.63800	9745
2.63867	9743
2.63933	9740
2.64000	9737
2.64067	9735
2.64133	9732
2.64200	9729
2.64267	9726
2.64333	9724
2.64400	9721
2.64467	9718
2.64533	9715
2.64600	9712
2.64667	9710
2.64733	9707
2.64800	9704
2.64867	9701
2.64933	9698
2.65000	9695
2.65067	9692
2.65133	9689
2.65200	9686
2.65267	9684
2.65333	9681
2.65400	9678
2.65467	9675
2.65533	9672
2.65600	9669
2.65667	9666
2.65733	9663
2.65800	9660
2.65867	9657
2.65933	9653
2.66000	9650
2.66067	9647
2.66133	9644
2.66200	9641
2.66267	9638
2.66333	9635
2.66400	9631
2.66467	9628
2.66533	9625
2.66600	9622
2.66667	9618
2.66733	9615
2.66800	9612
2.66867	9608
2.66933	9605
2.67000	9602
2.67067	9599
2.67133	9595
2.67200	9592
2.67267	9589
2.67333	9586
2.67400	9582
2.67467	9579
2.67533	9576
2.67600	9572
2.67667	9569
2.67733	9566
2.67800	9563
2.67867	9559
2.67933	9556
2.68000	9553
2.68067	9550
2.68133	9547
2.68200	9543
2.68267	9540
2.68333	9537
2.68400	9534
2.68467	9531
2.68533	9528
2.68600	9525
2.68667	9522
2.68733	9519
2.68800	9516
2.68867	9513
2.68933	9510
2.69000	9508
2.69067	9505
2.69133	9502
2.69200	9499
2.69267	9496
2.69333	9494
2.69400	9491
2.69467	9488
2.69533	9486
2.69600	9483
2.69667	9480
2.69733	9478
2.69800	9475
2.69867	9472
2.69933	9470
2.70000	9467
2.70067	9464
2.70133	9462
2.70200	9459
2.70267	9456
2.70333	9453
2.70400	9451
2.70467	9448
2.70533	9445
2.70600	9443
2.70667	9440
2.70733	9438
2.70800	9435
2.70867	9432
2.70933	9430
2.71000	9427
2.71067	9425
2.71133	9422
2.71200	9419
2.71267	9417
2.71333	9414
2.71400	9412
2.71467	9409
2.71533	9406
2.71600	9404
2.71667	9401
2.71733	9399
2.71800	9396
2.71867	9394
2.71933	9392
2.72000	9389
2.72067	9387
2.72133	9385
2.72200	9382
2.72267	9380
2.72333	9378
2.72400	9375
2.72467	9373
2.72533	9371
2.72600	9369
2.72667	9366
2.72733	9364
2.72800	9362
2.72867	9360
2.72933	9358
2.73000	9356
2.73067	9354
2.73133	9352
2.73200	9350
2.73267	9348
2.73333	9346
2.73400	9344
2.73467	9342
2.73533	9340
2.73600	9338
2.73667	9336
2.73733	9334
2.73800	9332
2.73867	9330
2.73933	9328
2.74000	9326
2.74067	9324
2.74133	9322
2.74200	9320
2.74267	9318
2.74333	9316
2.74400	9315
2.74467	9313
2.74533	9311
2.74600	9309
2.74667	9307
2.74733	9306
2.74800	9304
2.74867	9302
2.74933	9301
2.75000	9299
2.75067	9298
2.75133	9296
2.75200	9295
2.75267	9294
2.75333	9292
2.75400	9291
2.75467	9289
2.75533	9288
2.75600	9286
2.75667	9285
2.75733	9283
2.75800	9282
2.75867	9281
2.75933	9279
2.76000	9278
2.76067	9277
2.76133	9275
2.76200	9274
2.76267	9273
2.76333	9272
2.76400	9271
2.76467	9269
2.76533	9268
2.76600	9267
2.76667	9266
2.76733	9265
2.76800	9264
2.76867	9263
2.76933	9262
2.77000	9262
2.77067	9261
2.77133	9260
2.77200	9259
2.77267	9258
2.77333	9258
2.77400	9257
2.77467	9256
2.77533	9255
2.77600	9255
2.77667	9254
2.77733	9254
2.77800	9253
2.77867	9253
2.77933	9252
2.78000	9252
2.78067	9251
2.78133	9251
2.78200	9250
2.78267	9250
2.78333	9250
2.78400	9250
2.78467	9250
2.78533	9250
2.78600	9249
2.78667	9249
2.78733	9249
2.78800	9249
2.78867	9250
2.78933	9250
2.79000	9250
2.79067	9250
2.79133	9250
2.79200	9251
2.79267	9251
2.79333	9251
2.79400	9252
2.79467	9252
2.79533	9253
2.79600	9253
2.79667	9253
2.79733	9254
2.79800	9254
2.79867	9255
2.79933	9255
2.80000	9256
2.80067	9256
2.80133	9257
2.80200	9257
2.80267	9258
2.80333	9258
2.80400	9259
2.80467	9259
2.80533	9260
2.80600	9260
2.80667	9261
2.80733	9262
2.80800	9262
2.80867	9263
2.80933	9263
2.81000	9264
2.81067	9264
2.81133	9265
2.81200	9265
2.81267	9266
2.81333	9266
2.81400	9267
2.81467	9267
2.81533	9267
2.81600	9268
2.81667	9268
2.81733	9268
2.81800	9269
2.81867	9269
2.81933	9269
2.82000	9269
2.82067	9269
2.82133	9269
2.82200	9269
2.82267	9269
2.82333	9269
2.82400	9269
2.82467	9269
2.82533	9268
2.82600	9268
2.82667	9267
2.82733	9267
2.82800	9266
2.82867	9265
2.82933	9265
2.83000	9264
2.83067	9263
2.83133	9262
2.83200	9261
2.83267	9259
2.83333	9258
2.83400	9256
2.83467	9255
2.83533	9253
2.83600	9251
2.83667	9249
2.83733	9248
2.83800	9245
2.83867	9243
2.83933	9241
2.84000	9239
2.84067	9236
2.84133	9234
2.84200	9231
2.84267	9229
2.84333	9226
2.84400	9223
2.84467	9220
2.84533	9217
2.84600	9214
2.84667	9211
2.84733	9208
2.84800	9204
2.84867	9201
2.84933	9198
2.85000	9195
2.85067	9191
2.85133	9188
2.85200	9184
2.85267	9181
2.85333	9178
2.85400	9174
2.85467	9171
2.85533	9167
2.85600	9164
2.85667	9160
2.85733	9157
2.85800	9153
2.85867	9150
2.85933	9146
2.86000	9143
2.86067	9140
2.86133	9136
2.86200	9133
2.86267	9129
2.86333	9126
2.86400	9123
2.86467	9120
2.86533	9117
2.86600	9114
2.86667	9110
2.86733	9107
2.86800	9105
2.86867	9102
2.86933	9099
2.87000	9096
2.87067	9093
2.87133	9091
2.87200	9088
2.87267	9086
2.87333	9084
2.87400	9081
2.87467	9079
2.87533	9077
2.87600	9075
2.87667	9074
2.87733	9072
2.87800	9070
2.87867	9069
2.87933	9067
2.88000	9066
2.88067	9065
2.88133	9064
2.88200	9063
2.88267	9062
2.88333	9062
2.88400	9061
2.88467	9061
2.88533	9060
2.88600	9060
2.88667	9060
2.88733	9060
2.88800	9060
2.88867	9061
2.88933	9061
2.89000	9062
2.89067	9062
2.89133	9063
2.89200	9064
2.89267	9065
2.89333	9066
2.89400	9067
2.89467	9069
2.89533	9070
2.89600	9071
2.89667	9073
2.89733	9074
2.89800	9076
2.89867	9078
2.89933	9080
2.90000	9082
2.90067	9084
2.90133	9086
2.90200	9088
2.90267	9090
2.90333	9092
2.90400	9094
2.90467	9096
2.90533	9098
2.90600	9101
2.90667	9103
2.90733	9105
2.90800	9107
2.90867	9108
2.90933	9110
2.91000	9112
2.91067	9114
2.91133	9115
2.91200	9117
2.91267	9118
2.91333	9120
2.91400	9121
2.91467	9122
2.91533	9123
2.91600	9123
2.91667	9124
2.91733	9124
2.91800	9124
2.91867	9124
2.91933	9124
2.92000	9124
2.92067	9123
2.92133	9123
2.92200	9122
2.92267	9120
2.92333	9119
2.92400	9117
2.92467	9115
2.92533	9113
2.92600	9111
2.92667	9108
2.92733	9105
2.92800	9102
2.92867	9099
2.92933	9095
2.93000	9092
2.93067	9087
2.93133	9083
2.93200	9079
2.93267	9074
2.93333	9069
2.93400	9064
2.93467	9059
2.93533	9053
2.93600	9048
2.93667	9042
2.93733	9036
2.93800	9030
2.93867	9023
2.93933	9017
2.94000	9011
2.94067	9004
2.94133	8997
2.94200	8990
2.94267	8983
2.94333	8976
2.94400	8969
2.94467	8962
2.94533	8955
2.94600	8948
2.94667	8940
2.94733	8933
2.94800	8926
2.94867	8918
2.94933	8911
2.95000	8903
2.95067	8896
2.95133	8888
2.95200	8880
2.95267	8873
2.95333	8865
2.95400	8858
2.95467	8850
2.95533	8843
2.95600	8835
2.95667	8828
2.95733	8820
2.95800	8813
2.95867	8805
2.95933	8798
2.96000	8791
2.96067	8784
2.96133	8777
2.96200	8770
2.96267	8763
2.96333	8756
2.96400	8749
2.96467	8742
2.96533	8736
2.96600	8729
2.96667	8722
2.96733	8716
2.96800	8709
2.96867	8703
2.96933	8697
2.97000	8690
2.97067	8684
2.97133	8678
2.97200	8672
2.97267	8666
2.97333	8660
2.97400	8654
2.97467	8648
2.97533	8642
2.97600	8637
2.97667	8631
2.97733	8626
2.97800	8620
2.97867	8615
2.97933	8610
2.98000	8605
2.98067	8599
2.98133	8594
2.98200	8589
2.98267	8585
2.98333	8580
2.98400	8575
2.98467	8570
2.98533	8566
2.98600	8561
2.98667	8556
2.98733	8552
2.98800	8547
2.98867	8543
2.98933	8539
2.99000	8534
2.99067	8530
2.99133	8526
2.99200	8522
2.99267	8518
2.99333	8514
2.99400	8510
2.99467	8506
2.99533	8502
2.99600	8498
2.99667	8494
2.99733	8490
2.99800	8487
2.99867	8483
2.99933	8479
3.00000	8476
3.00067	8472
3.00133	8469
3.00200	8465
3.00267	8462
3.00333	8459
3.00400	8455
3.00467	8452
3.00533	8449
3.00600	8445
3.00667	8442
3.00733	8439
3.00800	8436
3.00867	8433
3.00933	8430
3.01000	8427
3.01067	8424
3.01133	8421
3.01200	8418
3.01267	8415
3.01333	8412
3.01400	8409
3.01467	8406
3.01533	8403
3.01600	8401
3.01667	8398
3.01733	8395
3.01800	8393
3.01867	8390
3.01933	8388
3.02000	8385
3.02067	8383
3.02133	8381
3.02200	8378
3.02267	8376
3.02333	8374
3.02400	8371
3.02467	8369
3.02533	8367
3.02600	8365
3.02667	8363
3.02733	8360
3.02800	8358
3.02867	8356
3.02933	8354
3.03000	8352
3.03067	8350
3.03133	8348
3.03200	8346
3.03267	8344
3.03333	8342
3.03400	8340
3.03467	8339
3.03533	8337
3.03600	8335
3.03667	8333
3.03733	8331
3.03800	8330
3.03867	8328
3.03933	8326
3.04000	8325
3.04067	8323
3.04133	8322
3.04200	8320
3.04267	8319
3.04333	8318
3.04400	8316
3.04467	8315
3.04533	8314
3.04600	8313
3.04667	8312
3.04733	8311
3.04800	8310
3.04867	8309
3.04933	8309
3.05000	8308
3.05067	8308
3.05133	8307
3.05200	8307
3.05267	8307
3.05333	8307
3.05400	8307
3.05467	8307
3.05533	8307
3.05600	8308
3.05667	8308
3.05733	8309
3.05800	8310
3.05867	8311
3.05933	8312
3.06000	8314
3.06067	8315
3.06133	8317
3.06200	8319
3.06267	8321
3.06333	8324
3.06400	8326
3.06467	8328
3.06533	8331
3.06600	8334
3.06667	8337
3.06733	8340
3.06800	8344
3.06867	8347
3.06933	8351
3.07000	8355
3.07067	8359
3.07133	8363
3.07200	8368
3.07267	8373
3.07333	8377
3.07400	8382
3.07467	8387
3.07533	8393
3.07600	8398
3.07667	8403
3.07733	8409
3.07800	8415
3.07867	8421
3.07933	8426
3.08000	8432
3.08067	8438
3.08133	8444
3.08200	8450
3.08267	8456
3.08333	8462
3.08400	8468
3.08467	8474
3.08533	8480
3.08600	8486
3.08667	8492
3.08733	8497
3.08800	8503
3.08867	8509
3.08933	8514
3.09000	8519
3.09067	8524
3.09133	8530
3.09200	8534
3.09267	8539
3.09333	8544
3.09400	8548
3.09467	8552
3.09533	8556
3.09600	8560
3.09667	8564
3.09733	8567
3.09800	8570
3.09867	8573
3.09933	8576
3.10000	8578
3.10067	8581
3.10133	8582
3.10200	8584
3.10267	8586
3.10333	8587
3.10400	8588
3.10467	8589
3.10533	8589
3.10600	8590
3.10667	8590
3.10733	8590
3.10800	8590
3.10867	8589
3.10933	8588
3.11000	8587
3.11067	8586
3.11133	8584
3.11200	8582
3.11267	8580
3.11333	8578
3.11400	8575
3.11467	8572
3.11533	8569
3.11600	8566
3.11667	8563
3.11733	8559
3.11800	8556
3.11867	8552
3.11933	8548
3.12000	8544
3.12067	8539
3.12133	8535
3.12200	8530
3.12267	8525
3.12333	8520
3.12400	8515
3.12467	8510
3.12533	8505
3.12600	8500
3.12667	8494
3.12733	8489
3.12800	8483
3.12867	8478
3.12933	8472
3.13000	8467
3.13067	8461
3.13133	8455
3.13200	8450
3.13267	8444
3.13333	8438
3.13400	8432
3.13467	8427
3.13533	8421
3.13600	8415
3.13667	8409
3.13733	8403
3.13800	8398
3.13867	8392
3.13933	8386
3.14000	8381
3.14067	8375
3.14133	8370
3.14200	8364
3.14267	8359
3.14333	8353
3.14400	8348
3.14467	8343
3.14533	8338
3.14600	8332
3.14667	8327
3.14733	8322
3.14800	8317
3.14867	8312
3.14933	8308
3.15000	8303
3.15067	8298
3.15133	8293
3.15200	8289
3.15267	8284
3.15333	8280
3.15400	8276
3.15467	8271
3.15533	8267
3.15600	8263
3.15667	8259
3.15733	8255
3.15800	8251
3.15867	8247
3.15933	8243
3.16000	8240
3.16067	8236
3.16133	8233
3.16200	8230
3.16267	8226
3.16333	8223
3.16400	8220
3.16467	8217
3.16533	8214
3.16600	8211
3.16667	8208
3.16733	8206
3.16800	8203
3.16867	8200
3.16933	8198
3.17000	8195
3.17067	8193
3.17133	8190
3.17200	8188
3.17267	8186
3.17333	8183
3.17400	8181
3.17467	8179
3.17533	8177
3.17600	8175
3.17667	8173
3.17733	8171
3.17800	8169
3.17867	8167
3.17933	8165
3.18000	8164
3.18067	8162
3.18133	8160
3.18200	8158
3.18267	8157
3.18333	8155
3.18400	8154
3.18467	8152
3.18533	8150
3.18600	8149
3.18667	8147
3.18733	8146
3.18800	8145
3.18867	8143
3.18933	8142
3.19000	8140
3.19067	8139
3.19133	8138
3.19200	8137
3.19267	8135
3.19333	8134
3.19400	8133
3.19467	8132
3.19533	8131
3.19600	8130
3.19667	8129
3.19733	8128
3.19800	8127
3.19867	8126
3.19933	8126
3.20000	8125
3.20067	8124
3.20133	8124
3.20200	8123
3.20267	8123
3.20333	8122
3.20400	8121
3.20467	8121
3.20533	8120
3.20600	8120
3.20667	8120
3.20733	8119
3.20800	8119
3.20867	8118
3.20933	8118
3.21000	8118
3.21067	8117
3.21133	8117
3.21200	8117
3.21267	8117
3.21333	8117
3.21400	8117
3.21467	8117
3.21533	8117
3.21600	8117
3.21667	8117
3.21733	8117
3.21800	8117
3.21867	8117
3.21933	8117
3.22000	8118
3.22067	8118
3.22133	8118
3.22200	8118
3.22267	8119
3.22333	8119
3.22400	8119
3.22467	8120
3.22533	8120
3.22600	8121
3.22667	8121
3.22733	8121
3.22800	8122
3.22867	8123
3.22933	8123
3.23000	8124
3.23067	8124
3.23133	8125
3.23200	8125
3.23267	8126
3.23333	8127
3.23400	8127
3.23467	8128
3.23533	8129
3.23600	8130
3.23667	8130
3.23733	8131
3.23800	8132
3.23867	8133
3.23933	8133
3.24000	8134
3.24067	8135
3.24133	8136
3.24200	8137
3.24267	8137
3.24333	8138
3.24400	8139
3.24467	8140
3.24533	8141
3.24600	8142
3.24667	8143
3.24733	8144
3.24800	8145
3.24867	8146
3.24933	8147
3.25000	8148
3.25067	8149
3.25133	8150
3.25200	8151
3.25267	8152
3.25333	8153
3.25400	8154
3.25467	8156
3.25533	8157
3.25600	8158
3.25667	8159
3.25733	8160
3.25800	8162
3.25867	8163
3.25933	8164
3.26000	8165
3.26067	8166
3.26133	8167
3.26200	8169
3.26267	8170
3.26333	8171
3.26400	8172
3.26467	8174
3.26533	8175
3.26600	8176
3.26667	8177
3.26733	8179
3.26800	8180
3.26867	8181
3.26933	8183
3.27000	8184
3.27067	8185
3.27133	8186
3.27200	8188
3.27267	8189
3.27333	8190
3.27400	8192
3.27467	8193
3.27533	8194
3.27600	8196
3.27667	8197
3.27733	8198
3.27800	8200
3.27867	8201
3.27933	8202
3.28000	8204
3.28067	8205
3.28133	8206
3.28200	8208
3.28267	8209
3.28333	8210
3.28400	8212
3.28467	8213
3.28533	8214
3.28600	8216
3.28667	8217
3.28733	8218
3.28800	8220
3.28867	8221
3.28933	8222
3.29000	8224
3.29067	8225
3.29133	8227
3.29200	8228
3.29267	8229
3.29333	8231
3.29400	8232
3.29467	8233
3.29533	8235
3.29600	8236
3.29667	8237
3.29733	8239
3.29800	8240
3.29867	8242
3.29933	8243
3.30000	8244
3.30067	8246
3.30133	8247
3.30200	8248
3.30267	8250
3.30333	8251
3.30400	8252
3.30467	8254
3.30533	8255
3.30600	8256
3.30667	8257
3.30733	8259
3.30800	8260
3.30867	8261
3.30933	8262
3.31000	8263
3.31067	8264
3.31133	8265
3.31200	8266
3.31267	8267
3.31333	8268
3.31400	8269
3.31467	8270
3.31533	8271
3.31600	8272
3.31667	8273
3.31733	8274
3.31800	8275
3.31867	8276
3.31933	8277
3.32000	8278
3.32067	8279
3.32133	8280
3.32200	8281
3.32267	8282
3.32333	8282
3.32400	8283
3.32467	8284
3.32533	8285
3.32600	8286
3.32667	8286
3.32733	8287
3.32800	8288
3.32867	8289
3.32933	8290
3.33000	8290
3.33067	8291
3.33133	8292
3.33200	8293
3.33267	8293
3.33333	8294
3.33400	8295
3.33467	8295
3.33533	8296
3.33600	8297
3.33667	8297
3.33733	8298
3.33800	8298
3.33867	8299
3.33933	8299
3.34000	8300
3.34067	8300
3.34133	8301
3.34200	8301
3.34267	8301
3.34333	8301
3.34400	8302
3.34467	8302
3.34533	8302
3.34600	8302
3.34667	8303
3.34733	8303
3.34800	8303
3.34867	8303
3.34933	8304
3.35000	8304
3.35067	8304
3.35133	8304
3.35200	8304
3.35267	8305
3.35333	8305
3.35400	8305
3.35467	8305
3.35533	8305
3.35600	8305
3.35667	8305
3.35733	8305
3.35800	8305
3.35867	8305
3.35933	8305
3.36000	8305
3.36067	8304
3.36133	8304
3.36200	8304
3.36267	8304
3.36333	8304
3.36400	8304
3.36467	8303
3.36533	8303
3.36600	8303
3.36667	8302
3.36733	8302
3.36800	8302
3.36867	8301
3.36933	8301
3.37000	8300
3.37067	8300
3.37133	8300
3.37200	8299
3.37267	8299
3.37333	8298
3.37400	8298
3.37467	8297
3.37533	8297
3.37600	8297
3.37667	8296
3.37733	8296
3.37800	8295
3.37867	8295
3.37933	8294
3.38000	8294
3.38067	8293
3.38133	8292
3.38200	8292
3.38267	8291
3.38333	8290
3.38400	8289
3.38467	8288
3.38533	8287
3.38600	8287
3.38667	8286
3.38733	8284
3.38800	8283
3.38867	8282
3.38933	8281
3.39000	8280
3.39067	8279
3.39133	8278
3.39200	8277
3.39267	8276
3.39333	8275
3.39400	8273
3.39467	8272
3.39533	8271
3.39600	8270
3.39667	8268
3.39733	8267
3.39800	8266
3.39867	8264
3.39933	8263
3.40000	8262
3.40067	8260
3.40133	8259
3.40200	8257
3.40267	8256
3.40333	8255
3.40400	8253
3.40467	8252
3.40533	8250
3.40600	8249
3.40667	8247
3.40733	8246
3.40800	8245
3.40867	8243
3.40933	8242
3.41000	8240
3.41067	8239
3.41133	8237
3.41200	8236
3.41267	8234
3.41333	8233
3.41400	8231
3.41467	8229
3.41533	8228
3.41600	8226
3.41667	8225
3.41733	8223
3.41800	8222
3.41867	8220
3.41933	8219
3.42000	8217
3.42067	8215
3.42133	8214
3.42200	8212
3.42267	8211
3.42333	8209
3.42400	8208
3.42467	8206
3.42533	8204
3.42600	8203
3.42667	8201
3.42733	8200
3.42800	8198
3.42867	8196
3.42933	8195
3.43000	8193
3.43067	8192
3.43133	8190
3.43200	8189
3.43267	8187
3.43333	8186
3.43400	8184
3.43467	8182
3.43533	8181
3.43600	8179
3.43667	8178
3.43733	8176
3.43800	8174
3.43867	8173
3.43933	8171
3.44000	8170
3.44067	8168
3.44133	8167
3.44200	8165
3.44267	8164
3.44333	8163
3.44400	8161
3.44467	8160
3.44533	8159
3.44600	8158
3.44667	8156
3.44733	8155
3.44800	8154
3.44867	8153
3.44933	8152
3.45000	8151
3.45067	8150
3.45133	8150
3.45200	8149
3.45267	8148
3.45333	8148
3.45400	8147
3.45467	8146
3.45533	8146
3.45600	8145
3.45667	8145
3.45733	8144
3.45800	8144
3.45867	8143
3.45933	8143
3.46000	8143
3.46067	8142
3.46133	8142
3.46200	8142
3.46267	8142
3.46333	8142
3.46400	8142
3.46467	8142
3.46533	8142
3.46600	8142
3.46667	8142
3.46733	8142
3.46800	8143
3.46867	8143
3.46933	8143
3.47000	8144
3.47067	8144
3.47133	8144
3.47200	8145
3.47267	8146
3.47333	8146
3.47400	8147
3.47467	8148
3.47533	8148
3.47600	8149
3.47667	8150
3.47733	8151
3.47800	8152
3.47867	8153
3.47933	8154
3.48000	8155
3.48067	8157
3.48133	8158
3.48200	8159
3.48267	8161
3.48333	8162
3.48400	8164
3.48467	8166
3.48533	8167
3.48600	8169
3.48667	8171
3.48733	8173
3.48800	8175
3.48867	8177
3.48933	8179
3.49000	8182
3.49067	8184
3.49133	8187
3.49200	8189
3.49267	8192
3.49333	8195
3.49400	8198
3.49467	8202
3.49533	8205
3.49600	8209
3.49667	8212
3.49733	8216
3.49800	8220
3.49867	8225
3.49933	8229
3.50000	8234
3.50067	8239
3.50133	8244
3.50200	8250
3.50267	8255
3.50333	8261
3.50400	8268
3.50467	8274
3.50533	8281
3.50600	8289
3.50667	8296
3.50733	8304
3.50800	8312
3.50867	8321
3.50933	8330
3.51000	8340
3.51067	8350
3.51133	8360
3.51200	8371
3.51267	8382
3.51333	8394
3.51400	8407
3.51467	8420
3.51533	8433
3.51600	8447
3.51667	8462
3.51733	8477
3.51800	8493
3.51867	8510
3.51933	8527
3.52000	8545
3.52067	8564
3.52133	8584
3.52200	8604
3.52267	8626
3.52333	8648
3.52400	8671
3.52467	8695
3.52533	8719
3.52600	8745
3.52667	8771
3.52733	8799
3.52800	8827
3.52867	8857
3.52933	8887
3.53000	8919
3.53067	8951
3.53133	8985
3.53200	9019
3.53267	9055
3.53333	9091
3.53400	9129
3.53467	9167
3.53533	9207
3.53600	9247
3.53667	9289
3.53733	9332
3.53800	9376
3.53867	9420
3.53933	9466
3.54000	9513
3.54067	9561
3.54133	9610
3.54200	9660
3.54267	9711
3.54333	9762
3.54400	9815
3.54467	9868
3.54533	9923
3.54600	9978
3.54667	10034
3.54733	10091
3.54800	10148
3.54867	10206
3.54933	10265
3.55000	10324
3.55067	10384
3.55133	10444
3.55200	10505
3.55267	10567
3.55333	10629
3.55400	10691
3.55467	10754
3.55533	10817
3.55600	10880
3.55667	10943
3.55733	11007
3.55800	11070
3.55867	11134
3.55933	11198
3.56000	11262
3.56067	11325
3.56133	11389
3.56200	11452
3.56267	11515
3.56333	11578
3.56400	11641
3.56467	11703
3.56533	11765
3.56600	11826
3.56667	11886
3.56733	11947
3.56800	12006
3.56867	12065
3.56933	12123
3.57000	12180
3.57067	12237
3.57133	12293
3.57200	12348
3.57267	12402
3.57333	12455
3.57400	12508
3.57467	12559
3.57533	12610
3.57600	12660
3.57667	12708
3.57733	12757
3.57800	12804
3.57867	12850
3.57933	12896
3.58000	12940
3.58067	12984
3.58133	13028
3.58200	13070
3.58267	13112
3.58333	13153
3.58400	13193
3.58467	13232
3.58533	13271
3.58600	13309
3.58667	13346
3.58733	13383
3.58800	13419
3.58867	13454
3.58933	13488
3.59000	13522
3.59067	13556
3.59133	13588
3.59200	13621
3.59267	13652
3.59333	13684
3.59400	13714
3.59467	13744
3.59533	13774
3.59600	13803
3.59667	13832
3.59733	13860
3.59800	13887
3.59867	13915
3.59933	13942
3.60000	13968
3.60067	13994
3.60133	14019
3.60200	14044
3.60267	14069
3.60333	14093
3.60400	14117
3.60467	14140
3.60533	14163
3.60600	14185
3.60667	14207
3.60733	14228
3.60800	14248
3.60867	14268
3.60933	14287
3.61000	14305
3.61067	14323
3.61133	14340
3.61200	14356
3.61267	14371
3.61333	14385
3.61400	14398
3.61467	14411
3.61533	14423
3.61600	14433
3.61667	14443
3.61733	14451
3.61800	14459
3.61867	14466
3.61933	14472
3.62000	14476
3.62067	14480
3.62133	14482
3.62200	14484
3.62267	14484
3.62333	14483
3.62400	14481
3.62467	14477
3.62533	14473
3.62600	14467
3.62667	14460
3.62733	14452
3.62800	14442
3.62867	14431
3.62933	14419
3.63000	14406
3.63067	14391
3.63133	14375
3.63200	14358
3.63267	14339
3.63333	14319
3.63400	14297
3.63467	14274
3.63533	14250
3.63600	14224
3.63667	14197
3.63733	14168
3.63800	14138
3.63867	14107
3.63933	14074
3.64000	14040
3.64067	14004
3.64133	13968
3.64200	13930
3.64267	13890
3.64333	13850
3.64400	13808
3.64467	13766
3.64533	13722
3.64600	13678
3.64667	13632
3.64733	13585
3.64800	13538
3.64867	13489
3.64933	13440
3.65000	13390
3.65067	13339
3.65133	13287
3.65200	13235
3.65267	13182
3.65333	13128
3.65400	13074
3.65467	13019
3.65533	12963
3.65600	12908
3.65667	12851
3.65733	12795
3.65800	12738
3.65867	12680
3.65933	12623
3.66000	12565
3.66067	12507
3.66133	12449
3.66200	12391
3.66267	12333
3.66333	12275
3.66400	12217
3.66467	12159
3.66533	12101
3.66600	12043
3.66667	11985
3.66733	11927
3.66800	11870
3.66867	11812
3.66933	11755
3.67000	11698
3.67067	11641
3.67133	11585
3.67200	11529
3.67267	11473
3.67333	11418
3.67400	11363
3.67467	11309
3.67533	11255
3.67600	11201
3.67667	11148
3.67733	11096
3.67800	11044
3.67867	10992
3.67933	10941
3.68000	10890
3.68067	10841
3.68133	10791
3.68200	10742
3.68267	10694
3.68333	10646
3.68400	10599
3.68467	10552
3.68533	10506
3.68600	10460
3.68667	10415
3.68733	10370
3.68800	10327
3.68867	10283
3.68933	10241
3.69000	10198
3.69067	10157
3.69133	10116
3.69200	10076
3.69267	10036
3.69333	9997
3.69400	9958
3.69467	9920
3.69533	9882
3.69600	9845
3.69667	9809
3.69733	9773
3.69800	9738
3.69867	9703
3.69933	9668
3.70000	9635
3.70067	9601
3.70133	9569
3.70200	9536
3.70267	9505
3.70333	9474
3.70400	9443
3.70467	9413
3.70533	9383
3.70600	9354
3.70667	9325
3.70733	9297
3.70800	9269
3.70867	9241
3.70933	9214
3.71000	9187
3.71067	9161
3.71133	9135
3.71200	9110
3.71267	9085
3.71333	9061
3.71400	9036
3.71467	9013
3.71533	8989
3.71600	8967
3.71667	8944
3.71733	8922
3.71800	8900
3.71867	8879
3.71933	8858
3.72000	8837
3.72067	8816
3.72133	8796
3.72200	8776
3.72267	8757
3.72333	8737
3.72400	8718
3.72467	8700
3.72533	8681
3.72600	8663
3.72667	8645
3.72733	8628
3.72800	8610
3.72867	8593
3.72933	8577
3.73000	8560
3.73067	8544
3.73133	8528
3.73200	8512
3.73267	8496
3.73333	8481
3.73400	8465
3.73467	8451
3.73533	8436
3.73600	8421
3.73667	8407
3.73733	8393
3.73800	8379
3.73867	8366
3.73933	8353
3.74000	8340
3.74067	8327
3.74133	8314
3.74200	8302
3.74267	8289
3.74333	8277
3.74400	8265
3.74467	8253
3.74533	8242
3.74600	8230
3.74667	8219
3.74733	8208
3.74800	8196
3.74867	8186
3.74933	8175
3.75000	8164
3.75067	8154
3.75133	8143
3.75200	8133
3.75267	8123
3.75333	8113
3.75400	8103
3.75467	8094
3.75533	8084
3.75600	8075
3.75667	8066
3.75733	8057
3.75800	8048
3.75867	8039
3.75933	8030
3.76000	8021
3.76067	8013
3.76133	8004
3.76200	7996
3.76267	7988
3.76333	7980
3.76400	7972
3.76467	7965
3.76533	7957
3.76600	7949
3.76667	7942
3.76733	7934
3.76800	7927
3.76867	7920
3.76933	7913
3.77000	7905
3.77067	7899
3.77133	7892
3.77200	7885
3.77267	7878
3.77333	7871
3.77400	7865
3.77467	7858
3.77533	7852
3.77600	7845
3.77667	7839
3.77733	7832
3.77800	7826
3.77867	7819
3.77933	7813
3.78000	7807
3.78067	7800
3.78133	7794
3.78200	7788
3.78267	7782
3.78333	7776
3.78400	7770
3.78467	7764
3.78533	7758
3.78600	7752
3.78667	7746
3.78733	7740
3.78800	7735
3.78867	7729
3.78933	7723
3.79000	7717
3.79067	7712
3.79133	7706
3.79200	7700
3.79267	7695
3.79333	7689
3.79400	7684
3.79467	7678
3.79533	7673
3.79600	7668
3.79667	7662
3.79733	7657
3.79800	7652
3.79867	7647
3.79933	7642
3.80000	7637
3.80067	7632
3.80133	7627
3.80200	7622
3.80267	7617
3.80333	7612
3.80400	7608
3.80467	7603
3.80533	7598
3.80600	7594
3.80667	7589
3.80733	7584
3.80800	7580
3.80867	7575
3.80933	7571
3.81000	7566
3.81067	7562
3.81133	7557
3.81200	7553
3.81267	7549
3.81333	7544
3.81400	7540
3.81467	7536
3.81533	7531
3.81600	7527
3.81667	7523
3.81733	7519
3.81800	7514
3.81867	7510
3.81933	7506
3.82000	7502
3.82067	7498
3.82133	7494
3.82200	7490
3.82267	7486
3.82333	7482
3.82400	7478
3.82467	7474
3.82533	7470
3.82600	7466
3.82667	7462
3.82733	7458
3.82800	7455
3.82867	7451
3.82933	7447
3.83000	7443
3.83067	7440
3.83133	7436
3.83200	7432
3.83267	7428
3.83333	7425
3.83400	7421
3.83467	7418
3.83533	7414
3.83600	7410
3.83667	7407
3.83733	7403
3.83800	7400
3.83867	7397
3.83933	7393
3.84000	7390
3.84067	7387
3.84133	7383
3.84200	7380
3.84267	7377
3.84333	7374
3.84400	7371
3.84467	7367
3.84533	7364
3.84600	7361
3.84667	7358
3.84733	7355
3.84800	7352
3.84867	7349
3.84933	7346
3.85000	7343
3.85067	7340
3.85133	7337
3.85200	7334
3.85267	7331
3.85333	7328
3.85400	7326
3.85467	7323
3.85533	7320
3.85600	7317
3.85667	7314
3.85733	7311
3.85800	7308
3.85867	7305
3.85933	7303
3.86000	7300
3.86067	7297
3.86133	7295
3.86200	7292
3.86267	7290
3.86333	7287
3.86400	7284
3.86467	7282
3.86533	7279
3.86600	7277
3.86667	7274
3.86733	7272
3.86800	7270
3.86867	7267
3.86933	7265
3.87000	7263
3.87067	7261
3.87133	7258
3.87200	7256
3.87267	7254
3.87333	7251
3.87400	7249
3.87467	7247
3.87533	7245
3.87600	7242
3.87667	7240
3.87733	7238
3.87800	7236
3.87867	7234
3.87933	7232
3.88000	7230
3.88067	7228
3.88133	7226
3.88200	7224
3.88267	7222
3.88333	7220
3.88400	7218
3.88467	7216
3.88533	7214
3.88600	7212
3.88667	7211
3.88733	7209
3.88800	7207
3.88867	7205
3.88933	7204
3.89000	7202
3.89067	7200
3.89133	7198
3.89200	7197
3.89267	7195
3.89333	7193
3.89400	7191
3.89467	7190
3.89533	7188
3.89600	7186
3.89667	7184
3.89733	7183
3.89800	7181
3.89867	7179
3.89933	7177
3.90000	7175
3.90067	7174
3.90133	7172
3.90200	7170
3.90267	7168
3.90333	7166
3.90400	7164
3.90467	7162
3.90533	7161
3.90600	7159
3.90667	7157
3.90733	7155
3.90800	7153
3.90867	7151
3.90933	7149
3.91000	7148
3.91067	7146
3.91133	7144
3.91200	7142
3.91267	7140
3.91333	7139
3.91400	7137
3.91467	7135
3.91533	7133
3.91600	7132
3.91667	7130
3.91733	7128
3.91800	7126
3.91867	7124
3.91933	7122
3.92000	7120
3.92067	7119
3.92133	7117
3.92200	7115
3.92267	7113
3.92333	7111
3.92400	7109
3.92467	7108
3.92533	7106
3.92600	7104
3.92667	7102
3.92733	7100
3.92800	7098
3.92867	7096
3.92933	7094
3.93000	7092
3.93067	7090
3.93133	7088
3.93200	7086
3.93267	7084
3.93333	7082
3.93400	7081
3.93467	7079
3.93533	7077
3.93600	7075
3.93667	7073
3.93733	7072
3.93800	7070
3.93867	7068
3.93933	7066
3.94000	7065
3.94067	7063
3.94133	7061
3.94200	7059
3.94267	7058
3.94333	7056
3.94400	7054
3.94467	7053
3.94533	7051
3.94600	7050
3.94667	7048
3.94733	7047
3.94800	7045
3.94867	7044
3.94933	7042
3.95000	7041
3.95067	7039
3.95133	7038
3.95200	7036
3.95267	7035
3.95333	7034
3.95400	7032
3.95467	7031
3.95533	7029
3.95600	7028
3.95667	7027
3.95733	7025
3.95800	7024
3.95867	7023
3.95933	7021
3.96000	7020
3.96067	7019
3.96133	7018
3.96200	7016
3.96267	7015
3.96333	7014
3.96400	7013
3.96467	7011
3.96533	7010
3.96600	7009
3.96667	7008
3.96733	7007
3.96800	7005
3.96867	7004
3.96933	7003
3.97000	7002
3.97067	7001
3.97133	7000
3.97200	6999
3.97267	6998
3.97333	6997
3.97400	6995
3.97467	6994
3.97533	6993
3.97600	6992
3.97667	6991
3.97733	6990
3.97800	6989
3.97867	6989
3.97933	6988
3.98000	6987
3.98067	6986
3.98133	6985
3.98200	6984
3.98267	6983
3.98333	6982
3.98400	6981
3.98467	6980
3.98533	6979
3.98600	6978
3.98667	6977
3.98733	6976
3.98800	6976
3.98867	6975
3.98933	6974
3.99000	6973
3.99067	6972
3.99133	6971
3.99200	6971
3.99267	6970
3.99333	6969
3.99400	6969
3.99467	6968
3.99533	6967
3.99600	6967
3.99667	6966
3.99733	6965
3.99800	6965
3.99867	6964
3.99933	6964
4.00000	6963
4.00067	6963
4.00133	6962
4.00200	6962
4.00267	6961
4.00333	6961
4.00400	6960
4.00467	6960
4.00533	6960
4.00600	6959
4.00667	6959
4.00733	6959
4.00800	6959
4.00867	6958
4.00933	6958
4.01000	6958
4.01067	6958
4.01133	6958
4.01200	6958
4.01267	6958
4.01333	6958
4.01400	6958
4.01467	6958
4.01533	6958
4.01600	6958
4.01667	6958
4.01733	6959
4.01800	6959
4.01867	6959
4.01933	6959
4.02000	6960
4.02067	6960
4.02133	6960
4.02200	6961
4.02267	6961
4.02333	6962
4.02400	6962
4.02467	6963
4.02533	6963
4.02600	6964
4.02667	6965
4.02733	6965
4.02800	6966
4.02867	6967
4.02933	6968
4.03000	6969
4.03067	6970
4.03133	6970
4.03200	6971
4.03267	6972
4.03333	6973
4.03400	6975
4.03467	6976
4.03533	6977
4.03600	6979
4.03667	6980
4.03733	6982
4.03800	6983
4.03867	6985
4.03933	6986
4.04000	6988
4.04067	6990
4.04133	6992
4.04200	6994
4.04267	6996
4.04333	6998
4.04400	7000
4.04467	7002
4.04533	7004
4.04600	7006
4.04667	7008
4.04733	7010
4.04800	7013
4.04867	7015
4.04933	7018
4.05000	7020
4.05067	7023
4.05133	7025
4.05200	7028
4.05267	7031
4.05333	7034
4.05400	7036
4.05467	7039
4.05533	7042
4.05600	7045
4.05667	7048
4.05733	7051
4.05800	7054
4.05867	7057
4.05933	7060
4.06000	7063
4.06067	7067
4.06133	7070
4.06200	7073
4.06267	7077
4.06333	7080
4.06400	7084
4.06467	7087
4.06533	7091
4.06600	7095
4.06667	7098
4.06733	7102
4.06800	7106
4.06867	7110
4.06933	7114
4.07000	7118
4.07067	7122
4.07133	7126
4.07200	7130
4.07267	7134
4.07333	7138
4.07400	7142
4.07467	7146
4.07533	7150
4.07600	7154
4.07667	7158
4.07733	7162
4.07800	7166
4.07867	7170
4.07933	7174
4.08000	7178
4.08067	7182
4.08133	7186
4.08200	7191
4.08267	7195
4.08333	7199
4.08400	7203
4.08467	7207
4.08533	7211
4.08600	7215
4.08667	7219
4.08733	7223
4.08800	7227
4.08867	7231
4.08933	7235
4.09000	7239
4.09067	7243
4.09133	7248
4.09200	7252
4.09267	7256
4.09333	7260
4.09400	7264
4.09467	7268
4.09533	7272
4.09600	7277
4.09667	7281
4.09733	7285
4.09800	7289
4.09867	7294
4.09933	7298
4.10000	7302
4.10067	7306
4.10133	7310
4.10200	7315
4.10267	7319
4.10333	7323
4.10400	7327
4.10467	7331
4.10533	7335
4.10600	7339
4.10667	7343
4.10733	7347
4.10800	7352
4.10867	7356
4.10933	7360
4.11000	7364
4.11067	7368
4.11133	7373
4.11200	7377
4.11267	7381
4.11333	7385
4.11400	7390
4.11467	7394
4.11533	7398
4.11600	7403
4.11667	7407
4.11733	7412
4.11800	7416
4.11867	7421
4.11933	7425
4.12000	7430
4.12067	7434
4.12133	7439
4.12200	7443
4.12267	7448
4.12333	7452
4.12400	7457
4.12467	7462
4.12533	7466
4.12600	7471
4.12667	7476
4.12733	7481
4.12800	7486
4.12867	7491
4.12933	7496
4.13000	7501
4.13067	7507
4.13133	7512
4.13200	7517
4.13267	7523
4.13333	7529
4.13400	7534
4.13467	7540
4.13533	7546
4.13600	7552
4.13667	7559
4.13733	7565
4.13800	7571
4.13867	7578
4.13933	7584
4.14000	7591
4.14067	7598
4.14133	7605
4.14200	7612
4.14267	7619
4.14333	7627
4.14400	7634
4.14467	7642
4.14533	7650
4.14600	7658
4.14667	7666
4.14733	7674
4.14800	7682
4.14867	7691
4.14933	7700
4.15000	7709
4.15067	7718
4.15133	7728
4.15200	7737
4.15267	7747
4.15333	7757
4.15400	7768
4.15467	7779
4.15533	7790
4.15600	7801
4.15667	7813
4.15733	7825
4.15800	7837
4.15867	7850
4.15933	7863
4.16000	7877
4.16067	7890
4.16133	7904
4.16200	7919
4.16267	7933
4.16333	7948
4.16400	7964
4.16467	7980
4.16533	7996
4.16600	8012
4.16667	8029
4.16733	8047
4.16800	8064
4.16867	8082
4.16933	8101
4.17000	8120
4.17067	8139
4.17133	8159
4.17200	8179
4.17267	8199
4.17333	8220
4.17400	8242
4.17467	8264
4.17533	8287
4.17600	8310
4.17667	8333
4.17733	8358
4.17800	8382
4.17867	8408
4.17933	8434
4.18000	8461
4.18067	8488
4.18133	8516
4.18200	8544
4.18267	8574
4.18333	8604
4.18400	8634
4.18467	8666
4.18533	8697
4.18600	8730
4.18667	8763
4.18733	8797
4.18800	8832
4.18867	8867
4.18933	8903
4.19000	8939
4.19067	8976
4.19133	9014
4.19200	9053
4.19267	9092
4.19333	9132
4.19400	9172
4.19467	9214
4.19533	9256
4.19600	9299
4.19667	9343
4.19733	9387
4.19800	9433
4.19867	9479
4.19933	9526
4.20000	9574
4.20067	9623
4.20133	9673
4.20200	9723
4.20267	9775
4.20333	9827
4.20400	9881
4.20467	9935
4.20533	9991
4.20600	10047
4.20667	10104
4.20733	10163
4.20800	10222
4.20867	10283
4.20933	10344
4.21000	10407
4.21067	10471
4.21133	10536
4.21200	10602
4.21267	10669
4.21333	10738
4.21400	10808
4.21467	10879
4.21533	10952
4.21600	11026
4.21667	11102
4.21733	11179
4.21800	11257
4.21867	11337
4.21933	11419
4.22000	11503
4.22067	11588
4.22133	11674
4.22200	11763
4.22267	11853
4.22333	11946
4.22400	12040
4.22467	12136
4.22533	12234
4.22600	12334
4.22667	12436
4.22733	12540
4.22800	12646
4.22867	12754
4.22933	12864
4.23000	12977
4.23067	13091
4.23133	13207
4.23200	13326
4.23267	13447
4.23333	13570
4.23400	13695
4.23467	13822
4.23533	13952
4.23600	14083
4.23667	14218
4.23733	14354
4.23800	14493
4.23867	14635
4.23933	14779
4.24000	14925
4.24067	15074
4.24133	15226
4.24200	15381
4.24267	15538
4.24333	15699
4.24400	15861
4.24467	16027
4.24533	16195
4.24600	16366
4.24667	16540
4.24733	16716
4.24800	16895
4.24867	17076
4.24933	17261
4.25000	17447
4.25067	17637
4.25133	17828
4.25200	18023
4.25267	18220
4.25333	18419
4.25400	18621
4.25467	18826
4.25533	19032
4.25600	19242
4.25667	19453
4.25733	19667
4.25800	19883
4.25867	20102
4.25933	20323
4.26000	20547
4.26067	20772
4.26133	21000
4.26200	21229
4.26267	21461
4.26333	21694
4.26400	21930
4.26467	22167
4.26533	22406
4.26600	22646
4.26667	22888
4.26733	23131
4.26800	23376
4.26867	23621
4.26933	23868
4.27000	24116
4.27067	24364
4.27133	24613
4.27200	24863
4.27267	25113
4.27333	25364
4.27400	25616
4.27467	25868
4.27533	26120
4.27600	26373
4.27667	26626
4.27733	26879
4.27800	27132
4.27867	27384
4.27933	27637
4.28000	27888
4.28067	28140
4.28133	28390
4.28200	28640
4.28267	28888
4.28333	29136
4.28400	29382
4.28467	29628
4.28533	29871
4.28600	30114
4.28667	30355
4.28733	30594
4.28800	30832
4.28867	31069
4.28933	31303
4.29000	31536
4.29067	31768
4.29133	31997
4.29200	32225
4.29267	32450
4.29333	32674
4.29400	32896
4.29467	33115
4.29533	33333
4.29600	33548
4.29667	33762
4.29733	33973
4.29800	34181
4.29867	34388
4.29933	34591
4.30000	34792
4.30067	34991
4.30133	35186
4.30200	35379
4.30267	35569
4.30333	35756
4.30400	35941
4.30467	36122
4.30533	36300
4.30600	36476
4.30667	36648
4.30733	36818
4.30800	36984
4.30867	37147
4.30933	37307
4.31000	37464
4.31067	37618
4.31133	37769
4.31200	37916
4.31267	38060
4.31333	38201
4.31400	38338
4.31467	38471
4.31533	38601
4.31600	38728
4.31667	38851
4.31733	38970
4.31800	39086
4.31867	39198
4.31933	39307
4.32000	39412
4.32067	39514
4.32133	39612
4.32200	39707
4.32267	39798
4.32333	39885
4.32400	39969
4.32467	40049
4.32533	40126
4.32600	40198
4.32667	40268
4.32733	40333
4.32800	40394
4.32867	40452
4.32933	40505
4.33000	40555
4.33067	40600
4.33133	40641
4.33200	40679
4.33267	40712
4.33333	40740
4.33400	40765
4.33467	40784
4.33533	40800
4.33600	40811
4.33667	40818
4.33733	40820
4.33800	40817
4.33867	40810
4.33933	40798
4.34000	40782
4.34067	40761
4.34133	40736
4.34200	40706
4.34267	40671
4.34333	40632
4.34400	40589
4.34467	40541
4.34533	40489
4.34600	40433
4.34667	40372
4.34733	40308
4.34800	40239
4.34867	40166
4.34933	40089
4.35000	40008
4.35067	39922
4.35133	39833
4.35200	39740
4.35267	39643
4.35333	39542
4.35400	39437
4.35467	39328
4.35533	39216
4.35600	39099
4.35667	38980
4.35733	38856
4.35800	38729
4.35867	38599
4.35933	38466
4.36000	38329
4.36067	38189
4.36133	38046
4.36200	37899
4.36267	37750
4.36333	37598
4.36400	37443
4.36467	37285
4.36533	37125
4.36600	36961
4.36667	36795
4.36733	36626
4.36800	36455
4.36867	36282
4.36933	36106
4.37000	35929
4.37067	35749
4.37133	35567
4.37200	35384
4.37267	35198
4.37333	35012
4.37400	34824
4.37467	34635
4.37533	34445
4.37600	34254
4.37667	34062
4.37733	33869
4.37800	33676
4.37867	33482
4.37933	33287
4.38000	33092
4.38067	32897
4.38133	32702
4.38200	32507
4.38267	32312
4.38333	32117
4.38400	31922
4.38467	31728
4.38533	31534
4.38600	31340
4.38667	31147
4.38733	30955
4.38800	30763
4.38867	30572
4.38933	30382
4.39000	30193
4.39067	30005
4.39133	29818
4.39200	29632
4.39267	29448
4.39333	29265
4.39400	29083
4.39467	28903
4.39533	28724
4.39600	28547
4.39667	28372
4.39733	28198
4.39800	28027
4.39867	27857
4.39933	27689
4.40000	27523
4.40067	27359
4.40133	27197
4.40200	27037
4.40267	26880
4.40333	26724
4.40400	26571
4.40467	26420
4.40533	26271
4.40600	26124
4.40667	25980
4.40733	25838
4.40800	25698
4.40867	25561
4.40933	25425
4.41000	25293
4.41067	25162
4.41133	25034
4.41200	24908
4.41267	24784
4.41333	24663
4.41400	24544
4.41467	24427
4.41533	24312
4.41600	24200
4.41667	24090
4.41733	23982
4.41800	23876
4.41867	23772
4.41933	23670
4.42000	23570
4.42067	23472
4.42133	23376
4.42200	23281
4.42267	23189
4.42333	23099
4.42400	23010
4.42467	22923
4.42533	22838
4.42600	22755
4.42667	22674
4.42733	22595
4.42800	22517
4.42867	22441
4.42933	22366
4.43000	22293
4.43067	22221
4.43133	22151
4.43200	22082
4.43267	22015
4.43333	21949
4.43400	21884
4.43467	21820
4.43533	21758
4.43600	21696
4.43667	21636
4.43733	21577
4.43800	21519
4.43867	21461
4.43933	21405
4.44000	21350
4.44067	21295
4.44133	21241
4.44200	21188
4.44267	21136
4.44333	21085
4.44400	21034
4.44467	20984
4.44533	20934
4.44600	20885
4.44667	20836
4.44733	20788
4.44800	20740
4.44867	20693
4.44933	20646
4.45000	20599
4.45067	20552
4.45133	20506
4.45200	20460
4.45267	20414
4.45333	20369
4.45400	20323
4.45467	20278
4.45533	20233
4.45600	20188
4.45667	20143
4.45733	20098
4.45800	20054
4.45867	20009
4.45933	19964
4.46000	19919
4.46067	19874
4.46133	19829
4.46200	19783
4.46267	19737
4.46333	19691
4.46400	19645
4.46467	19598
4.46533	19551
4.46600	19504
4.46667	19456
4.46733	19408
4.46800	19360
4.46867	19311
4.46933	19262
4.47000	19213
4.47067	19163
4.47133	19113
4.47200	19062
4.47267	19012
4.47333	18961
4.47400	18909
4.47467	18858
4.47533	18805
4.47600	18753
4.47667	18701
4.47733	18648
4.47800	18595
4.47867	18541
4.47933	18488
4.48000	18434
4.48067	18380
4.48133	18325
4.48200	18270
4.48267	18215
4.48333	18160
4.48400	18105
4.48467	18049
4.48533	17993
4.48600	17937
4.48667	17881
4.48733	17824
4.48800	17768
4.48867	17711
4.48933	17654
4.49000	17598
4.49067	17541
4.49133	17484
4.49200	17427
4.49267	17370
4.49333	17313
4.49400	17256
4.49467	17200
4.49533	17143
4.49600	17087
4.49667	17030
4.49733	16974
4.49800	16918
4.49867	16862
4.49933	16806
4.50000	16750
4.50067	16695
4.50133	16640
4.50200	16585
4.50267	16530
4.50333	16476
4.50400	16422
4.50467	16368
4.50533	16315
4.50600	16262
4.50667	16209
4.50733	16157
4.50800	16105
4.50867	16054
4.50933	16003
4.51000	15953
4.51067	15903
4.51133	15853
4.51200	15804
4.51267	15755
4.51333	15707
4.51400	15660
4.51467	15613
4.51533	15567
4.51600	15521
4.51667	15476
4.51733	15431
4.51800	15388
4.51867	15345
4.51933	15303
4.52000	15262
4.52067	15221
4.52133	15182
4.52200	15143
4.52267	15106
4.52333	15069
4.52400	15034
4.52467	14999
4.52533	14966
4.52600	14933
4.52667	14902
4.52733	14871
4.52800	14842
4.52867	14814
4.52933	14786
4.53000	14760
4.53067	14735
4.53133	14711
4.53200	14688
4.53267	14666
4.53333	14645
4.53400	14625
4.53467	14606
4.53533	14589
4.53600	14573
4.53667	14558
4.53733	14544
4.53800	14532
4.53867	14520
4.53933	14510
4.54000	14502
4.54067	14494
4.54133	14488
4.54200	14483
4.54267	14480
4.54333	14478
4.54400	14477
4.54467	14477
4.54533	14479
4.54600	14482
4.54667	14486
4.54733	14492
4.54800	14499
4.54867	14507
4.54933	14516
4.55000	14527
4.55067	14539
4.55133	14552
4.55200	14567
4.55267	14583
4.55333	14600
4.55400	14619
4.55467	14638
4.55533	14659
4.55600	14681
4.55667	14704
4.55733	14729
4.55800	14754
4.55867	14781
4.55933	14809
4.56000	14838
4.56067	14868
4.56133	14899
4.56200	14931
4.56267	14965
4.56333	14999
4.56400	15035
4.56467	15072
4.56533	15110
4.56600	15148
4.56667	15188
4.56733	15229
4.56800	15271
4.56867	15313
4.56933	15357
4.57000	15401
4.57067	15446
4.57133	15492
4.57200	15538
4.57267	15585
4.57333	15633
4.57400	15681
4.57467	15730
4.57533	15779
4.57600	15829
4.57667	15879
4.57733	15929
4.57800	15980
4.57867	16031
4.57933	16083
4.58000	16134
4.58067	16186
4.58133	16238
4.58200	16291
4.58267	16343
4.58333	16395
4.58400	16447
4.58467	16499
4.58533	16552
4.58600	16604
4.58667	16655
4.58733	16707
4.58800	16758
4.58867	16809
4.58933	16860
4.59000	16910
4.59067	16960
4.59133	17009
4.59200	17058
4.59267	17106
4.59333	17154
4.59400	17201
4.59467	17248
4.59533	17294
4.59600	17340
4.59667	17384
4.59733	17428
4.59800	17471
4.59867	17513
4.59933	17555
4.60000	17595
4.60067	17635
4.60133	17674
4.60200	17711
4.60267	17748
4.60333	17784
4.60400	17818
4.60467	17852
4.60533	17884
4.60600	17916
4.60667	17946
4.60733	17975
4.60800	18003
4.60867	18029
4.60933	18055
4.61000	18079
4.61067	18102
4.61133	18124
4.61200	18145
4.61267	18164
4.61333	18182
4.61400	18199
4.61467	18215
4.61533	18230
4.61600	18243
4.61667	18255
4.61733	18266
4.61800	18276
4.61867	18284
4.61933	18290
4.62000	18296
4.62067	18300
4.62133	18302
4.62200	18303
4.62267	18303
4.62333	18301
4.62400	18298
4.62467	18294
4.62533	18288
4.62600	18281
4.62667	18273
4.62733	18264
4.62800	18253
4.62867	18242
4.62933	18229
4.63000	18215
4.63067	18200
4.63133	18184
4.63200	18167
4.63267	18149
4.63333	18130
4.63400	18110
4.63467	18089
4.63533	18067
4.63600	18044
4.63667	18020
4.63733	17995
4.63800	17969
4.63867	17942
4.63933	17915
4.64000	17886
4.64067	17857
4.64133	17827
4.64200	17797
4.64267	17766
4.64333	17734
4.64400	17702
4.64467	17669
4.64533	17635
4.64600	17601
4.64667	17567
4.64733	17532
4.64800	17496
4.64867	17460
4.64933	17424
4.65000	17387
4.65067	17349
4.65133	17312
4.65200	17273
4.65267	17235
4.65333	17196
4.65400	17157
4.65467	17117
4.65533	17077
4.65600	17037
4.65667	16997
4.65733	16957
4.65800	16916
4.65867	16875
4.65933	16834
4.66000	16792
4.66067	16751
4.66133	16709
4.66200	16668
4.66267	16626
4.66333	16584
4.66400	16542
4.66467	16500
4.66533	16458
4.66600	16416
4.66667	16374
4.66733	16332
4.66800	16290
4.66867	16249
4.66933	16207
4.67000	16166
4.67067	16124
4.67133	16083
4.67200	16042
4.67267	16001
4.67333	15960
4.67400	15919
4.67467	15878
4.67533	15838
4.67600	15797
4.67667	15757
4.67733	15717
4.67800	15676
4.67867	15637
4.67933	15597
4.68000	15557
4.68067	15518
4.68133	15479
4.68200	15440
4.68267	15401
4.68333	15363
4.68400	15325
4.68467	15287
4.68533	15249
4.68600	15211
4.68667	15174
4.68733	15137
4.68800	15100
4.68867	15063
4.68933	15026
4.69000	14990
4.69067	14954
4.69133	14919
4.69200	14883
4.69267	14848
4.69333	14813
4.69400	14778
4.69467	14744
4.69533	14710
4.69600	14676
4.69667	14642
4.69733	14608
4.69800	14575
4.69867	14542
4.69933	14509
4.70000	14476
4.70067	14444
4.70133	14411
4.70200	14379
4.70267	14348
4.70333	14316
4.70400	14285
4.70467	14254
4.70533	14224
4.70600	14193
4.70667	14163
4.70733	14133
4.70800	14104
4.70867	14074
4.70933	14045
4.71000	14016
4.71067	13988
4.71133	13959
4.71200	13931
4.71267	13903
4.71333	13876
4.71400	13848
4.71467	13821
4.71533	13795
4.71600	13768
4.71667	13742
4.71733	13716
4.71800	13691
4.71867	13665
4.71933	13640
4.72000	13616
4.72067	13591
4.72133	13567
4.72200	13543
4.72267	13520
4.72333	13496
4.72400	13473
4.72467	13451
4.72533	13428
4.72600	13406
4.72667	13384
4.72733	13363
4.72800	13341
4.72867	13321
4.72933	13300
4.73000	13279
4.73067	13259
4.73133	13239
4.73200	13219
4.73267	13200
4.73333	13180
4.73400	13161
4.73467	13142
4.73533	13123
4.73600	13105
4.73667	13086
4.73733	13068
4.73800	13050
4.73867	13032
4.73933	13015
4.74000	12997
4.74067	12980
4.74133	12963
4.74200	12945
4.74267	12929
4.74333	12912
4.74400	12895
4.74467	12879
4.74533	12862
4.74600	12846
4.74667	12830
4.74733	12813
4.74800	12797
4.74867	12781
4.74933	12766
4.75000	12750
4.75067	12734
4.75133	12719
4.75200	12704
4.75267	12688
4.75333	12673
4.75400	12659
4.75467	12644
4.75533	12629
4.75600	12615
4.75667	12600
4.75733	12586
4.75800	12572
4.75867	12558
4.75933	12544
4.76000	12530
4.76067	12516
4.76133	12503
4.76200	12489
4.76267	12476
4.76333	12462
4.76400	12449
4.76467	12436
4.76533	12423
4.76600	12409
4.76667	12396
4.76733	12384
4.76800	12371
4.76867	12358
4.76933	12345
4.77000	12333
4.77067	12321
4.77133	12308
4.77200	12296
4.77267	12284
4.77333	12272
4.77400	12261
4.77467	12249
4.77533	12237
4.77600	12226
4.77667	12215
4.77733	12203
4.77800	12192
4.77867	12181
4.77933	12170
4.78000	12159
4.78067	12149
4.78133	12138
4.78200	12127
4.78267	12117
4.78333	12106
4.78400	12096
4.78467	12086
4.78533	12075
4.78600	12065
4.78667	12055
4.78733	12045
4.78800	12035
4.78867	12025
4.78933	12015
4.79000	12005
4.79067	11995
4.79133	11985
4.79200	11975
4.79267	11966
4.79333	11956
4.79400	11946
4.79467	11936
4.79533	11927
4.79600	11917
4.79667	11908
4.79733	11898
4.79800	11889
4.79867	11880
4.79933	11871
4.80000	11862
4.80067	11853
4.80133	11844
4.80200	11835
4.80267	11826
4.80333	11818
4.80400	11809
4.80467	11801
4.80533	11792
4.80600	11784
4.80667	11776
4.80733	11768
4.80800	11759
4.80867	11751
4.80933	11743
4.81000	11735
4.81067	11727
4.81133	11719
4.81200	11711
4.81267	11703
4.81333	11695
4.81400	11688
4.81467	11680
4.81533	11672
4.81600	11664
4.81667	11656
4.81733	11649
4.81800	11641
4.81867	11634
4.81933	11626
4.82000	11618
4.82067	11611
4.82133	11604
4.82200	11596
4.82267	11589
4.82333	11581
4.82400	11574
4.82467	11567
4.82533	11560
4.82600	11552
4.82667	11545
4.82733	11538
4.82800	11531
4.82867	11524
4.82933	11517
4.83000	11510
4.83067	11503
4.83133	11496
4.83200	11489
4.83267	11483
4.83333	11476
4.83400	11469
4.83467	11462
4.83533	11455
4.83600	11448
4.83667	11442
4.83733	11435
4.83800	11428
4.83867	11421
4.83933	11414
4.84000	11408
4.84067	11401
4.84133	11394
4.84200	11387
4.84267	11380
4.84333	11374
4.84400	11367
4.84467	11360
4.84533	11354
4.84600	11347
4.84667	11341
4.84733	11334
4.84800	11328
4.84867	11321
4.84933	11315
4.85000	11309
4.85067	11302
4.85133	11296
4.85200	11290
4.85267	11283
4.85333	11277
4.85400	11271
4.85467	11265
4.85533	11259
4.85600	11253
4.85667	11247
4.85733	11240
4.85800	11234
4.85867	11228
4.85933	11222
4.86000	11216
4.86067	11210
4.86133	11204
4.86200	11198
4.86267	11192
4.86333	11186
4.86400	11180
4.86467	11175
4.86533	11169
4.86600	11163
4.86667	11157
4.86733	11151
4.86800	11145
4.86867	11139
4.86933	11132
4.87000	11126
4.87067	11120
4.87133	11114
4.87200	11108
4.87267	11101
4.87333	11095
4.87400	11089
4.87467	11082
4.87533	11076
4.87600	11070
4.87667	11064
4.87733	11057
4.87800	11051
4.87867	11045
4.87933	11039
4.88000	11032
4.88067	11026
4.88133	11020
4.88200	11014
4.88267	11007
4.88333	11001
4.88400	10995
4.88467	10988
4.88533	10982
4.88600	10976
4.88667	10970
4.88733	10963
4.88800	10957
4.88867	10951
4.88933	10945
4.89000	10939
4.89067	10932
4.89133	10926
4.89200	10920
4.89267	10914
4.89333	10908
4.89400	10902
4.89467	10896
4.89533	10890
4.89600	10884
4.89667	10878
4.89733	10872
4.89800	10866
4.89867	10860
4.89933	10855
4.90000	10849
4.90067	10843
4.90133	10838
4.90200	10832
4.90267	10827
4.90333	10821
4.90400	10816
4.90467	10811
4.90533	10805
4.90600	10800
4.90667	10795
4.90733	10789
4.90800	10784
4.90867	10779
4.90933	10774
4.91000	10769
4.91067	10764
4.91133	10759
4.91200	10754
4.91267	10749
4.91333	10744
4.91400	10740
4.91467	10735
4.91533	10730
4.91600	10725
4.91667	10721
4.91733	10716
4.91800	10711
4.91867	10706
4.91933	10702
4.92000	10697
4.92067	10692
4.92133	10687
4.92200	10683
4.92267	10678
4.92333	10674
4.92400	10669
4.92467	10664
4.92533	10660
4.92600	10655
4.92667	10651
4.92733	10646
4.92800	10641
4.92867	10637
4.92933	10632
4.93000	10628
4.93067	10623
4.93133	10619
4.93200	10614
4.93267	10610
4.93333	10605
4.93400	10601
4.93467	10596
4.93533	10592
4.93600	10588
4.93667	10583
4.93733	10579
4.93800	10575
4.93867	10571
4.93933	10567
4.94000	10562
4.94067	10558
4.94133	10554
4.94200	10550
4.94267	10546
4.94333	10541
4.94400	10537
4.94467	10533
4.94533	10529
4.94600	10525
4.94667	10520
4.94733	10516
4.94800	10512
4.94867	10507
4.94933	10503
4.95000	10499
4.95067	10494
4.95133	10490
4.95200	10486
4.95267	10481
4.95333	10477
4.95400	10472
4.95467	10468
4.95533	10463
4.95600	10459
4.95667	10454
4.95733	10450
4.95800	10445
4.95867	10441
4.95933	10436
4.96000	10432
4.96067	10427
4.96133	10423
4.96200	10418
4.96267	10414
4.96333	10409
4.96400	10405
4.96467	10400
4.96533	10396
4.96600	10391
4.96667	10387
4.96733	10383
4.96800	10378
4.96867	10374
4.96933	10369
4.97000	10365
4.97067	10361
4.97133	10356
4.97200	10352
4.97267	10348
4.97333	10343
4.97400	10339
4.97467	10335
4.97533	10330
4.97600	10326
4.97667	10322
4.97733	10317
4.97800	10313
4.97867	10309
4.97933	10305
4.98000	10301
4.98067	10297
4.98133	10293
4.98200	10289
4.98267	10285
4.98333	10281
4.98400	10277
4.98467	10273
4.98533	10269
4.98600	10265
4.98667	10262
4.98733	10258
4.98800	10254
4.98867	10250
4.98933	10246
4.99000	10243
4.99067	10239
4.99133	10235
4.99200	10231
4.99267	10227
4.99333	10224
4.99400	10220
4.99467	10216
4.99533	10212
4.99600	10208
4.99667	10204
4.99733	10200
4.99800	10196
4.99867	10192
4.99933	10188
5.00000	10184
5.00067	10180
5.00133	10176
5.00200	10172
5.00267	10167
5.00333	10163
5.00400	10159
5.00467	10155
5.00533	10151
5.00600	10147
5.00667	10143
5.00733	10139
5.00800	10135
5.00867	10131
5.00933	10127
5.01000	10123
5.01067	10119
5.01133	10116
5.01200	10112
5.01267	10108
5.01333	10104
5.01400	10100
5.01467	10096
5.01533	10093
5.01600	10089
5.01667	10085
5.01733	10081
5.01800	10077
5.01867	10073
5.01933	10069
5.02000	10065
5.02067	10061
5.02133	10057
5.02200	10053
5.02267	10049
5.02333	10045
5.02400	10041
5.02467	10037
5.02533	10033
5.02600	10029
5.02667	10025
5.02733	10021
5.02800	10017
5.02867	10012
5.02933	10008
5.03000	10004
5.03067	10000
5.03133	9996
5.03200	9991
5.03267	9987
5.03333	9983
5.03400	9978
5.03467	9974
5.03533	9970
5.03600	9965
5.03667	9961
5.03733	9957
5.03800	9952
5.03867	9948
5.03933	9944
5.04000	9940
5.04067	9935
5.04133	9931
5.04200	9927
5.04267	9923
5.04333	9919
5.04400	9915
5.04467	9911
5.04533	9906
5.04600	9902
5.04667	9898
5.04733	9894
5.04800	9890
5.04867	9886
5.04933	9882
5.05000	9877
5.05067	9873
5.05133	9869
5.05200	9865
5.05267	9861
5.05333	9857
5.05400	9853
5.05467	9849
5.05533	9845
5.05600	9841
5.05667	9837
5.05733	9833
5.05800	9829
5.05867	9825
5.05933	9822
5.06000	9818
5.06067	9814
5.06133	9810
5.06200	9806
5.06267	9802
5.06333	9799
5.06400	9795
5.06467	9791
5.06533	9787
5.06600	9784
5.06667	9780
5.06733	9776
5.06800	9773
5.06867	9769
5.06933	9766
5.07000	9762
5.07067	9759
5.07133	9755
5.07200	9752
5.07267	9749
5.07333	9746
5.07400	9742
5.07467	9739
5.07533	9736
5.07600	9733
5.07667	9731
5.07733	9728
5.07800	9725
5.07867	9722
5.07933	9720
5.08000	9717
5.08067	9715
5.08133	9712
5.08200	9710
5.08267	9707
5.08333	9705
5.08400	9702
5.08467	9700
5.08533	9698
5.08600	9695
5.08667	9693
5.08733	9691
5.08800	9689
5.08867	9687
5.08933	9685
5.09000	9683
5.09067	9681
5.09133	9679
5.09200	9678
5.09267	9676
5.09333	9675
5.09400	9673
5.09467	9672
5.09533	9671
5.09600	9670
5.09667	9669
5.09733	9668
5.09800	9668
5.09867	9667
5.09933	9667
5.10000	9667
5.10067	9666
5.10133	9667
5.10200	9667
5.10267	9667
5.10333	9668
5.10400	9669
5.10467	9670
5.10533	9671
5.10600	9672
5.10667	9674
5.10733	9676
5.10800	9678
5.10867	9681
5.10933	9683
5.11000	9686
5.11067	9690
5.11133	9693
5.11200	9697
5.11267	9702
5.11333	9706
5.11400	9711
5.11467	9717
5.11533	9723
5.11600	9729
5.11667	9736
5.11733	9744
5.11800	9752
5.11867	9760
5.11933	9769
5.12000	9778
5.12067	9789
5.12133	9799
5.12200	9811
5.12267	9822
5.12333	9835
5.12400	9848
5.12467	9862
5.12533	9876
5.12600	9892
5.12667	9908
5.12733	9924
5.12800	9942
5.12867	9960
5.12933	9979
5.13000	9999
5.13067	10019
5.13133	10041
5.13200	10064
5.13267	10087
5.13333	10112
5.13400	10137
5.13467	10164
5.13533	10192
5.13600	10221
5.13667	10251
5.13733	10282
5.13800	10314
5.13867	10347
5.13933	10382
5.14000	10418
5.14067	10455
5.14133	10494
5.14200	10534
5.14267	10575
5.14333	10618
5.14400	10662
5.14467	10707
5.14533	10754
5.14600	10803
5.14667	10853
5.14733	10904
5.14800	10957
5.14867	11012
5.14933	11068
5.15000	11126
5.15067	11185
5.15133	11246
5.15200	11309
5.15267	11374
5.15333	11440
5.15400	11509
5.15467	11579
5.15533	11651
5.15600	11724
5.15667	11800
5.15733	11877
5.15800	11957
5.15867	12038
5.15933	12121
5.16000	12206
5.16067	12292
5.16133	12381
5.16200	12472
5.16267	12564
5.16333	12658
5.16400	12755
5.16467	12853
5.16533	12953
5.16600	13055
5.16667	13159
5.16733	13265
5.16800	13373
5.16867	13483
5.16933	13595
5.17000	13708
5.17067	13824
5.17133	13942
5.17200	14062
5.17267	14184
5.17333	14307
5.17400	14433
5.17467	14561
5.17533	14691
5.17600	14822
5.17667	14956
5.17733	15091
5.17800	15229
5.17867	15368
5.17933	15509
5.18000	15652
5.18067	15797
5.18133	15944
5.18200	16092
5.18267	16242
5.18333	16393
5.18400	16547
5.18467	16701
5.18533	16858
5.18600	17015
5.18667	17174
5.18733	17335
5.18800	17496
5.18867	17659
5.18933	17823
5.19000	17988
5.19067	18154
5.19133	18321
5.19200	18489
5.19267	18657
5.19333	18826
5.19400	18995
5.19467	19164
5.19533	19334
5.19600	19504
5.19667	19674
5.19733	19844
5.19800	20014
5.19867	20184
5.19933	20354
5.20000	20524
5.20067	20694
5.20133	20863
5.20200	21033
5.20267	21202
5.20333	21370
5.20400	21538
5.20467	21706
5.20533	21873
5.20600	22040
5.20667	22206
5.20733	22372
5.20800	22536
5.20867	22700
5.20933	22863
5.21000	23025
5.21067	23186
5.21133	23346
5.21200	23504
5.21267	23661
5.21333	23817
5.21400	23971
5.21467	24124
5.21533	24275
5.21600	24424
5.21667	24571
5.21733	24716
5.21800	24859
5.21867	25000
5.21933	25139
5.22000	25276
5.22067	25410
5.22133	25541
5.22200	25671
5.22267	25797
5.22333	25921
5.22400	26042
5.22467	26160
5.22533	26276
5.22600	26388
5.22667	26497
5.22733	26603
5.22800	26706
5.22867	26806
5.22933	26902
5.23000	26995
5.23067	27085
5.23133	27171
5.23200	27254
5.23267	27333
5.23333	27409
5.23400	27481
5.23467	27549
5.23533	27614
5.23600	27676
5.23667	27733
5.23733	27787
5.23800	27837
5.23867	27883
5.23933	27925
5.24000	27964
5.24067	27999
5.24133	28030
5.24200	28058
5.24267	28082
5.24333	28102
5.24400	28119
5.24467	28132
5.24533	28141
5.24600	28147
5.24667	28150
5.24733	28149
5.24800	28145
5.24867	28138
5.24933	28128
5.25000	28114
5.25067	28097
5.25133	28077
5.25200	28053
5.25267	28027
5.25333	27997
5.25400	27964
5.25467	27929
5.25533	27890
5.25600	27848
5.25667	27803
5.25733	27756
5.25800	27705
5.25867	27651
5.25933	27595
5.26000	27536
5.26067	27474
5.26133	27410
5.26200	27343
5.26267	27273
5.26333	27201
5.26400	27126
5.26467	27049
5.26533	26970
5.26600	26888
5.26667	26804
5.26733	26719
5.26800	26631
5.26867	26541
5.26933	26449
5.27000	26356
5.27067	26260
5.27133	26163
5.27200	26065
5.27267	25964
5.27333	25862
5.27400	25759
5.27467	25654
5.27533	25548
5.27600	25441
5.27667	25332
5.27733	25222
5.27800	25111
5.27867	24999
5.27933	24887
5.28000	24773
5.28067	24659
5.28133	24543
5.28200	24428
5.28267	24311
5.28333	24195
5.28400	24077
5.28467	23960
5.28533	23842
5.28600	23723
5.28667	23605
5.28733	23486
5.28800	23367
5.28867	23247
5.28933	23128
5.29000	23009
5.29067	22890
5.29133	22771
5.29200	22652
5.29267	22533
5.29333	22414
5.29400	22296
5.29467	22178
5.29533	22060
5.29600	21943
5.29667	21826
5.29733	21709
5.29800	21593
5.29867	21478
5.29933	21363
5.30000	21249
5.30067	21135
5.30133	21021
5.30200	20909
5.30267	20797
5.30333	20685
5.30400	20575
5.30467	20465
5.30533	20356
5.30600	20247
5.30667	20140
5.30733	20033
5.30800	19927
5.30867	19822
5.30933	19718
5.31000	19615
5.31067	19513
5.31133	19411
5.31200	19311
5.31267	19211
5.31333	19112
5.31400	19015
5.31467	18918
5.31533	18823
5.31600	18728
5.31667	18634
5.31733	18541
5.31800	18449
5.31867	18358
5.31933	18269
5.32000	18180
5.32067	18092
5.32133	18005
5.32200	17919
5.32267	17834
5.32333	17750
5.32400	17667
5.32467	17585
5.32533	17504
5.32600	17423
5.32667	17344
5.32733	17266
5.32800	17189
5.32867	17112
5.32933	17037
5.33000	16962
5.33067	16888
5.33133	16815
5.33200	16743
5.33267	16672
5.33333	16602
5.33400	16533
5.33467	16464
5.33533	16397
5.33600	16330
5.33667	16264
5.33733	16199
5.33800	16135
5.33867	16071
5.33933	16009
5.34000	15947
5.34067	15886
5.34133	15826
5.34200	15766
5.34267	15708
5.34333	15650
5.34400	15593
5.34467	15536
5.34533	15481
5.34600	15426
5.34667	15372
5.34733	15319
5.34800	15266
5.34867	15214
5.34933	15163
5.35000	15113
5.35067	15063
5.35133	15014
5.35200	14965
5.35267	14917
5.35333	14870
5.35400	14824
5.35467	14778
5.35533	14732
5.35600	14687
5.35667	14643
5.35733	14599
5.35800	14556
5.35867	14513
5.35933	14471
5.36000	14429
5.36067	14388
5.36133	14347
5.36200	14307
5.36267	14267
5.36333	14228
5.36400	14189
5.36467	14150
5.36533	14113
5.36600	14075
5.36667	14038
5.36733	14001
5.36800	13965
5.36867	13929
5.36933	13894
5.37000	13859
5.37067	13825
5.37133	13790
5.37200	13757
5.37267	13723
5.37333	13690
5.37400	13657
5.37467	13625
5.37533	13593
5.37600	13561
5.37667	13530
5.37733	13499
5.37800	13468
5.37867	13437
5.37933	13407
5.38000	13377
5.38067	13348
5.38133	13319
5.38200	13290
5.38267	13261
5.38333	13233
5.38400	13205
5.38467	13177
5.38533	13150
5.38600	13123
5.38667	13096
5.38733	13070
5.38800	13043
5.38867	13018
5.38933	12992
5.39000	12967
5.39067	12941
5.39133	12917
5.39200	12892
5.39267	12868
5.39333	12844
5.39400	12820
5.39467	12796
5.39533	12773
5.39600	12750
5.39667	12727
5.39733	12704
5.39800	12682
5.39867	12660
5.39933	12638
5.40000	12616
5.40067	12595
5.40133	12573
5.40200	12552
5.40267	12531
5.40333	12511
5.40400	12490
5.40467	12470
5.40533	12450
5.40600	12430
5.40667	12411
5.40733	12391
5.40800	12372
5.40867	12353
5.40933	12334
5.41000	12316
5.41067	12297
5.41133	12279
5.41200	12261
5.41267	12243
5.41333	12225
5.41400	12207
5.41467	12189
5.41533	12171
5.41600	12153
5.41667	12136
5.41733	12119
5.41800	12101
5.41867	12084
5.41933	12067
5.42000	12050
5.42067	12034
5.42133	12017
5.42200	12000
5.42267	11984
5.42333	11967
5.42400	11951
5.42467	11935
5.42533	11919
5.42600	11902
5.42667	11886
5.42733	11871
5.42800	11855
5.42867	11839
5.42933	11824
5.43000	11808
5.43067	11793
5.43133	11778
5.43200	11763
5.43267	11748
5.43333	11733
5.43400	11718
5.43467	11703
5.43533	11689
5.43600	11675
5.43667	11660
5.43733	11646
5.43800	11632
5.43867	11618
5.43933	11605
5.44000	11591
5.44067	11577
5.44133	11564
5.44200	11550
5.44267	11537
5.44333	11524
5.44400	11511
5.44467	11497
5.44533	11484
5.44600	11471
5.44667	11458
5.44733	11445
5.44800	11432
5.44867	11419
5.44933	11406
5.45000	11393
5.45067	11381
5.45133	11368
5.45200	11355
5.45267	11343
5.45333	11330
5.45400	11318
5.45467	11306
5.45533	11293
5.45600	11281
5.45667	11269
5.45733	11257
5.45800	11245
5.45867	11233
5.45933	11222
5.46000	11210
5.46067	11198
5.46133	11187
5.46200	11175
5.46267	11163
5.46333	11152
5.46400	11141
5.46467	11129
5.46533	11118
5.46600	11107
5.46667	11096
5.46733	11085
5.46800	11074
5.46867	11063
5.46933	11052
5.47000	11041
5.47067	11030
5.47133	11019
5.47200	11009
5.47267	10998
5.47333	10987
5.47400	10976
5.47467	10966
5.47533	10955
5.47600	10944
5.47667	10934
5.47733	10923
5.47800	10913
5.47867	10902
5.47933	10892
5.48000	10881
5.48067	10871
5.48133	10860
5.48200	10850
5.48267	10839
5.48333	10829
5.48400	10818
5.48467	10808
5.48533	10798
5.48600	10787
5.48667	10777
5.48733	10767
5.48800	10757
5.48867	10747
5.48933	10737
5.49000	10727
5.49067	10717
5.49133	10707
5.49200	10697
5.49267	10687
5.49333	10678
5.49400	10668
5.49467	10658
5.49533	10649
5.49600	10639
5.49667	10630
5.49733	10621
5.49800	10611
5.49867	10602
5.49933	10593
5.50000	10584
5.50067	10575
5.50133	10566
5.50200	10557
5.50267	10548
5.50333	10539
5.50400	10531
5.50467	10522
5.50533	10513
5.50600	10505
5.50667	10496
5.50733	10488
5.50800	10479
5.50867	10471
5.50933	10463
5.51000	10455
5.51067	10446
5.51133	10438
5.51200	10430
5.51267	10422
5.51333	10414
5.51400	10406
5.51467	10399
5.51533	10391
5.51600	10383
5.51667	10375
5.51733	10367
5.51800	10359
5.51867	10352
5.51933	10344
5.52000	10336
5.52067	10329
5.52133	10321
5.52200	10314
5.52267	10306
5.52333	10299
5.52400	10291
5.52467	10284
5.52533	10276
5.52600	10269
5.52667	10262
5.52733	10255
5.52800	10248
5.52867	10240
5.52933	10233
5.53000	10226
5.53067	10219
5.53133	10212
5.53200	10205
5.53267	10199
5.53333	10192
5.53400	10185
5.53467	10178
5.53533	10171
5.53600	10164
5.53667	10157
5.53733	10150
5.53800	10143
5.53867	10137
5.53933	10130
5.54000	10123
5.54067	10116
5.54133	10109
5.54200	10102
5.54267	10095
5.54333	10089
5.54400	10082
5.54467	10075
5.54533	10069
5.54600	10062
5.54667	10056
5.54733	10049
5.54800	10043
5.54867	10037
5.54933	10030
5.55000	10024
5.55067	10018
5.55133	10012
5.55200	10006
5.55267	10000
5.55333	9994
5.55400	9988
5.55467	9982
5.55533	9976
5.55600	9970
5.55667	9964
5.55733	9958
5.55800	9952
5.55867	9946
5.55933	9941
5.56000	9935
5.56067	9929
5.56133	9923
5.56200	9917
5.56267	9912
5.56333	9906
5.56400	9900
5.56467	9894
5.56533	9889
5.56600	9883
5.56667	9878
5.56733	9872
5.56800	9867
5.56867	9861
5.56933	9856
5.57000	9851
5.57067	9845
5.57133	9840
5.57200	9835
5.57267	9830
5.57333	9824
5.57400	9819
5.57467	9814
5.57533	9809
5.57600	9803
5.57667	9798
5.57733	9793
5.57800	9788
5.57867	9783
5.57933	9778
5.58000	9773
5.58067	9769
5.58133	9764
5.58200	9759
5.58267	9755
5.58333	9750
5.58400	9746
5.58467	9741
5.58533	9737
5.58600	9733
5.58667	9728
5.58733	9724
5.58800	9720
5.58867	9715
5.58933	9711
5.59000	9707
5.59067	9703
5.59133	9699
5.59200	9695
5.59267	9691
5.59333	9687
5.59400	9684
5.59467	9680
5.59533	9676
5.59600	9672
5.59667	9669
5.59733	9665
5.59800	9661
5.59867	9657
5.59933	9653
5.60000	9650
5.60067	9646
5.60133	9642
5.60200	9638
5.60267	9635
5.60333	9631
5.60400	9627
5.60467	9623
5.60533	9620
5.60600	9616
5.60667	9612
5.60733	9608
5.60800	9605
5.60867	9601
5.60933	9597
5.61000	9593
5.61067	9590
5.61133	9586
5.61200	9582
5.61267	9578
5.61333	9575
5.61400	9571
5.61467	9567
5.61533	9563
5.61600	9560
5.61667	9556
5.61733	9552
5.61800	9549
5.61867	9545
5.61933	9541
5.62000	9538
5.62067	9534
5.62133	9530
5.62200	9527
5.62267	9523
5.62333	9519
5.62400	9515
5.62467	9512
5.62533	9508
5.62600	9504
5.62667	9501
5.62733	9497
5.62800	9493
5.62867	9490
5.62933	9486
5.63000	9482
5.63067	9479
5.63133	9475
5.63200	9471
5.63267	9468
5.63333	9464
5.63400	9461
5.63467	9457
5.63533	9453
5.63600	9450
5.63667	9446
5.63733	9443
5.63800	9440
5.63867	9436
5.63933	9433
5.64000	9430
5.64067	9426
5.64133	9423
5.64200	9420
5.64267	9416
5.64333	9413
5.64400	9409
5.64467	9406
5.64533	9402
5.64600	9399
5.64667	9395
5.64733	9392
5.64800	9388
5.64867	9385
5.64933	9381
5.65000	9378
5.65067	9374
5.65133	9370
5.65200	9367
5.65267	9363
5.65333	9360
5.65400	9356
5.65467	9352
5.65533	9349
5.65600	9345
5.65667	9342
5.65733	9338
5.65800	9334
5.65867	9331
5.65933	9327
5.66000	9324
5.66067	9320
5.66133	9317
5.66200	9314
5.66267	9310
5.66333	9307
5.66400	9304
5.66467	9301
5.66533	9297
5.66600	9294
5.66667	9291
5.66733	9288
5.66800	9285
5.66867	9281
5.66933	9278
5.67000	9275
5.67067	9272
5.67133	9269
5.67200	9266
5.67267	9263
5.67333	9260
5.67400	9257
5.67467	9254
5.67533	9251
5.67600	9248
5.67667	9245
5.67733	9242
5.67800	9239
5.67867	9236
5.67933	9233
5.68000	9230
5.68067	9227
5.68133	9224
5.68200	9221
5.68267	9218
5.68333	9215
5.68400	9212
5.68467	9209
5.68533	9206
5.68600	9203
5.68667	9200
5.68733	9198
5.68800	9195
5.68867	9192
5.68933	9189
5.69000	9187
5.69067	9184
5.69133	9181
5.69200	9178
5.69267	9176
5.69333	9173
5.69400	9171
5.69467	9168
5.69533	9165
5.69600	9163
5.69667	9160
5.69733	9158
5.69800	9155
5.69867	9153
5.69933	9150
5.70000	9148
5.70067	9146
5.70133	9143
5.70200	9141
5.70267	9139
5.70333	9136
5.70400	9134
5.70467	9132
5.70533	9130
5.70600	9128
5.70667	9125
5.70733	9123
5.70800	9121
5.70867	9119
5.70933	9117
5.71000	9115
5.71067	9113
5.71133	9111
5.71200	9110
5.71267	9108
5.71333	9106
5.71400	9104
5.71467	9102
5.71533	9100
5.71600	9098
5.71667	9097
5.71733	9095
5.71800	9093
5.71867	9091
5.71933	9090
5.72000	9088
5.72067	9087
5.72133	9085
5.72200	9084
5.72267	9083
5.72333	9081
5.72400	9080
5.72467	9079
5.72533	9078
5.72600	9077
5.72667	9075
5.72733	9074
5.72800	9073
5.72867	9072
5.72933	9071
5.73000	9070
5.73067	9069
5.73133	9068
5.73200	9067
5.73267	9067
5.73333	9066
5.73400	9065
5.73467	9065
5.73533	9064
5.73600	9064
5.73667	9063
5.73733	9063
5.73800	9062
5.73867	9062
5.73933	9062
5.74000	9062
5.74067	9061
5.74133	9061
5.74200	9061
5.74267	9061
5.74333	9061
5.74400	9061
5.74467	9061
5.74533	9061
5.74600	9061
5.74667	9061
5.74733	9061
5.74800	9061
5.74867	9061
5.74933	9062
5.75000	9062
5.75067	9062
5.75133	9062
5.75200	9063
5.75267	9063
5.75333	9063
5.75400	9064
5.75467	9064
5.75533	9065
5.75600	9065
5.75667	9066
5.75733	9066
5.75800	9067
5.75867	9068
5.75933	9069
5.76000	9069
5.76067	9070
5.76133	9071
5.76200	9072
5.76267	9073
5.76333	9074
5.76400	9075
5.76467	9077
5.76533	9078
5.76600	9079
5.76667	9081
5.76733	9082
5.76800	9083
5.76867	9085
5.76933	9087
5.77000	9088
5.77067	9090
5.77133	9091
5.77200	9093
5.77267	9095
5.77333	9097
5.77400	9099
5.77467	9101
5.77533	9103
5.77600	9105
5.77667	9107
5.77733	9109
5.77800	9111
5.77867	9114
5.77933	9116
5.78000	9119
5.78067	9121
5.78133	9124
5.78200	9126
5.78267	9129
5.78333	9132
5.78400	9135
5.78467	9138
5.78533	9141
5.78600	9144
5.78667	9147
5.78733	9150
5.78800	9153
5.78867	9156
5.78933	9159
5.79000	9162
5.79067	9166
5.79133	9169
5.79200	9172
5.79267	9176
5.79333	9179
5.79400	9183
5.79467	9186
5.79533	9190
5.79600	9194
5.79667	9197
5.79733	9201
5.79800	9205
5.79867	9209
5.79933	9212
5.80000	9216
5.80067	9220
5.80133	9224
5.80200	9228
5.80267	9232
5.80333	9236
5.80400	9240
5.80467	9244
5.80533	9247
5.80600	9251
5.80667	9255
5.80733	9259
5.80800	9263
5.80867	9267
5.80933	9271
5.81000	9275
5.81067	9279
5.81133	9283
5.81200	9288
5.81267	9292
5.81333	9296
5.81400	9300
5.81467	9304
5.81533	9308
5.81600	9313
5.81667	9317
5.81733	9321
5.81800	9325
5.81867	9330
5.81933	9334
5.82000	9338
5.82067	9343
5.82133	9347
5.82200	9351
5.82267	9355
5.82333	9359
5.82400	9364
5.82467	9368
5.82533	9372
5.82600	9376
5.82667	9380
5.82733	9385
5.82800	9389
5.82867	9393
5.82933	9397
5.83000	9401
5.83067	9405
5.83133	9409
5.83200	9413
5.83267	9417
5.83333	9421
5.83400	9425
5.83467	9429
5.83533	9433
5.83600	9437
5.83667	9440
5.83733	9444
5.83800	9448
5.83867	9452
5.83933	9455
5.84000	9459
5.84067	9463
5.84133	9466
5.84200	9469
5.84267	9473
5.84333	9476
5.84400	9479
5.84467	9482
5.84533	9486
5.84600	9488
5.84667	9491
5.84733	9494
5.84800	9497
5.84867	9499
5.84933	9502
5.85000	9504
5.85067	9507
5.85133	9509
5.85200	9511
5.85267	9514
5.85333	9516
5.85400	9518
5.85467	9520
5.85533	9522
5.85600	9523
5.85667	9525
5.85733	9527
5.85800	9528
5.85867	9529
5.85933	9531
5.86000	9532
5.86067	9533
5.86133	9534
5.86200	9535
5.86267	9536
5.86333	9537
5.86400	9538
5.86467	9538
5.86533	9539
5.86600	9539
5.86667	9540
5.86733	9540
5.86800	9540
5.86867	9540
5.86933	9541
5.87000	9541
5.87067	9540
5.87133	9540
5.87200	9540
5.87267	9540
5.87333	9539
5.87400	9539
5.87467	9538
5.87533	9537
5.87600	9537
5.87667	9536
5.87733	9535
5.87800	9534
5.87867	9533
5.87933	9532
5.88000	9530
5.88067	9529
5.88133	9528
5.88200	9526
5.88267	9525
5.88333	9523
5.88400	9522
5.88467	9520
5.88533	9518
5.88600	9517
5.88667	9515
5.88733	9513
5.88800	9511
5.88867	9508
5.88933	9506
5.89000	9504
5.89067	9502
5.89133	9499
5.89200	9497
5.89267	9494
5.89333	9492
5.89400	9489
5.89467	9486
5.89533	9483
5.89600	9481
5.89667	9478
5.89733	9475
5.89800	9472
5.89867	9469
5.89933	9466
5.90000	9463
5.90067	9460
5.90133	9457
5.90200	9453
5.90267	9450
5.90333	9447
5.90400	9444
5.90467	9441
5.90533	9437
5.90600	9434
5.90667	9430
5.90733	9427
5.90800	9424
5.90867	9420
5.90933	9417
5.91000	9413
5.91067	9410
5.91133	9406
5.91200	9403
5.91267	9399
5.91333	9395
5.91400	9392
5.91467	9388
5.91533	9384
5.91600	9381
5.91667	9377
5.91733	9373
5.91800	9369
5.91867	9366
5.91933	9362
5.92000	9359
5.92067	9355
5.92133	9351
5.92200	9348
5.92267	9344
5.92333	9341
5.92400	9337
5.92467	9334
5.92533	9331
5.92600	9327
5.92667	9324
5.92733	9320
5.92800	9317
5.92867	9314
5.92933	9310
5.93000	9307
5.93067	9304
5.93133	9300
5.93200	9297
5.93267	9294
5.93333	9291
5.93400	9287
5.93467	9284
5.93533	9281
5.93600	9277
5.93667	9274
5.93733	9271
5.93800	9267
5.93867	9264
5.93933	9260
5.94000	9257
5.94067	9253
5.94133	9250
5.94200	9246
5.94267	9243
5.94333	9239
5.94400	9236
5.94467	9232
5.94533	9229
5.94600	9225
5.94667	9222
5.94733	9218
5.94800	9214
5.94867	9211
5.94933	9207
5.95000	9204
5.95067	9200
5.95133	9197
5.95200	9193
5.95267	9190
5.95333	9186
5.95400	9182
5.95467	9179
5.95533	9175
5.95600	9172
5.95667	9168
5.95733	9164
5.95800	9161
5.95867	9157
5.95933	9153
5.96000	9150
5.96067	9146
5.96133	9142
5.96200	9138
5.96267	9135
5.96333	9131
5.96400	9127
5.96467	9124
5.96533	9120
5.96600	9116
5.96667	9113
5.96733	9109
5.96800	9105
5.96867	9102
5.96933	9098
5.97000	9095
5.97067	9091
5.97133	9088
5.97200	9084
5.97267	9081
5.97333	9077
5.97400	9074
5.97467	9071
5.97533	9067
5.97600	9064
5.97667	9061
5.97733	9057
5.97800	9054
5.97867	9051
5.97933	9047
5.98000	9044
5.98067	9041
5.98133	9037
5.98200	9034
5.98267	9031
5.98333	9028
5.98400	9024
5.98467	9021
5.98533	9018
5.98600	9014
5.98667	9011
5.98733	9008
5.98800	9005
5.98867	9002
5.98933	8999
5.99000	8996
5.99067	8993
5.99133	8990
5.99200	8987
5.99267	8984
5.99333	8982
5.99400	8979
5.99467	8976
5.99533	8973
5.99600	8970
5.99667	8968
5.99733	8965
5.99800	8962
5.99867	8959
5.99933	8957
6.00000	8954
6.00067	8951
6.00133	8948
6.00200	8945
6.00267	8943
6.00333	8940
6.00400	8937
6.00467	8935
6.00533	8932
6.00600	8929
6.00667	8927
6.00733	8924
6.00800	8922
6.00867	8919
6.00933	8917
6.01000	8914
6.01067	8912
6.01133	8909
6.01200	8907
6.01267	8905
6.01333	8902
6.01400	8900
6.01467	8898
6.01533	8896
6.01600	8894
6.01667	8892
6.01733	8889
6.01800	8887
6.01867	8885
6.01933	8883
6.02000	8881
6.02067	8879
6.02133	8877
6.02200	8876
6.02267	8874
6.02333	8872
6.02400	8870
6.02467	8868
6.02533	8866
6.02600	8864
6.02667	8863
6.02733	8861
6.02800	8859
6.02867	8857
6.02933	8855
6.03000	8853
6.03067	8851
6.03133	8849
6.03200	8848
6.03267	8846
6.03333	8844
6.03400	8842
6.03467	8840
6.03533	8838
6.03600	8836
6.03667	8834
6.03733	8832
6.03800	8829
6.03867	8827
6.03933	8825
6.04000	8823
6.04067	8821
6.04133	8819
6.04200	8817
6.04267	8815
6.04333	8812
6.04400	8810
6.04467	8808
6.04533	8806
6.04600	8804
6.04667	8802
6.04733	8799
6.04800	8797
6.04867	8795
6.04933	8793
6.05000	8791
6.05067	8788
6.05133	8786
6.05200	8784
6.05267	8781
6.05333	8779
6.05400	8777
6.05467	8774
6.05533	8772
6.05600	8770
6.05667	8768
6.05733	8765
6.05800	8763
6.05867	8761
6.05933	8758
6.06000	8756
6.06067	8754
6.06133	8751
6.06200	8749
6.06267	8747
6.06333	8744
6.06400	8742
6.06467	8740
6.06533	8737
6.06600	8735
6.06667	8733
6.06733	8730
6.06800	8728
6.06867	8726
6.06933	8723
6.07000	8721
6.07067	8719
6.07133	8716
6.07200	8714
6.07267	8712
6.07333	8709
6.07400	8707
6.07467	8704
6.07533	8702
6.07600	8700
6.07667	8697
6.07733	8695
6.07800	8693
6.07867	8690
6.07933	8688
6.08000	8686
6.08067	8683
6.08133	8681
6.08200	8679
6.08267	8677
6.08333	8674
6.08400	8672
6.08467	8670
6.08533	8668
6.08600	8666
6.08667	8664
6.08733	8662
6.08800	8660
6.08867	8658
6.08933	8656
6.09000	8654
6.09067	8652
6.09133	8650
6.09200	8648
6.09267	8646
6.09333	8644
6.09400	8642
6.09467	8640
6.09533	8638
6.09600	8637
6.09667	8635
6.09733	8633
6.09800	8631
6.09867	8629
6.09933	8628
6.10000	8626
6.10067	8624
6.10133	8623
6.10200	8621
6.10267	8619
6.10333	8618
6.10400	8616
6.10467	8614
6.10533	8613
6.10600	8611
6.10667	8609
6.10733	8608
6.10800	8606
6.10867	8605
6.10933	8604
6.11000	8602
6.11067	8601
6.11133	8599
6.11200	8598
6.11267	8597
6.11333	8595
6.11400	8594
6.11467	8593
6.11533	8592
6.11600	8590
6.11667	8589
6.11733	8588
6.11800	8587
6.11867	8586
6.11933	8584
6.12000	8583
6.12067	8582
6.12133	8581
6.12200	8580
6.12267	8579
6.12333	8577
6.12400	8576
6.12467	8575
6.12533	8574
6.12600	8573
6.12667	8572
6.12733	8571
6.12800	8570
6.12867	8568
6.12933	8567
6.13000	8566
6.13067	8565
6.13133	8564
6.13200	8563
6.13267	8562
6.13333	8561
6.13400	8560
6.13467	8559
6.13533	8557
6.13600	8556
6.13667	8555
6.13733	8554
6.13800	8553
6.13867	8552
6.13933	8551
6.14000	8550
6.14067	8549
6.14133	8548
6.14200	8547
6.14267	8546
6.14333	8545
6.14400	8544
6.14467	8543
6.14533	8542
6.14600	8541
6.14667	8540
6.14733	8539
6.14800	8538
6.14867	8537
6.14933	8536
6.15000	8535
6.15067	8534
6.15133	8533
6.15200	8532
6.15267	8531
6.15333	8530
6.15400	8529
6.15467	8528
6.15533	8527
6.15600	8526
6.15667	8525
6.15733	8524
6.15800	8523
6.15867	8522
6.15933	8521
6.16000	8521
6.16067	8520
6.16133	8519
6.16200	8518
6.16267	8517
6.16333	8517
6.16400	8516
6.16467	8515
6.16533	8514
6.16600	8513
6.16667	8513
6.16733	8512
6.16800	8511
6.16867	8511
6.16933	8510
6.17000	8510
6.17067	8509
6.17133	8509
6.17200	8508
6.17267	8508
6.17333	8508
6.17400	8507
6.17467	8507
6.17533	8507
6.17600	8507
6.17667	8507
6.17733	8506
6.17800	8506
6.17867	8506
6.17933	8506
6.18000	8506
6.18067	8506
6.18133	8506
6.18200	8506
6.18267	8506
6.18333	8506
6.18400	8507
6.18467	8507
6.18533	8507
6.18600	8507
6.18667	8507
6.18733	8508
6.18800	8508
6.18867	8509
6.18933	8509
6.19000	8509
6.19067	8510
6.19133	8510
6.19200	8511
6.19267	8511
6.19333	8512
6.19400	8513
6.19467	8513
6.19533	8514
6.19600	8515
6.19667	8516
6.19733	8516
6.19800	8517
6.19867	8518
6.19933	8519
6.20000	8520
6.20067	8521
6.20133	8522
6.20200	8524
6.20267	8525
6.20333	8526
6.20400	8527
6.20467	8529
6.20533	8530
6.20600	8532
6.20667	8534
6.20733	8535
6.20800	8537
6.20867	8539
6.20933	8541
6.21000	8543
6.21067	8545
6.21133	8547
6.21200	8549
6.21267	8551
6.21333	8553
6.21400	8555
6.21467	8557
6.21533	8560
6.21600	8562
6.21667	8564
6.21733	8567
6.21800	8569
6.21867	8572
6.21933	8574
6.22000	8577
6.22067	8580
6.22133	8582
6.22200	8585
6.22267	8588
6.22333	8590
6.22400	8593
6.22467	8596
6.22533	8599
6.22600	8602
6.22667	8604
6.22733	8607
6.22800	8610
6.22867	8613
6.22933	8616
6.23000	8619
6.23067	8622
6.23133	8625
6.23200	8628
6.23267	8632
6.23333	8635
6.23400	8638
6.23467	8641
6.23533	8644
6.23600	8648
6.23667	8651
6.23733	8654
6.23800	8657
6.23867	8661
6.23933	8664
6.24000	8667
6.24067	8671
6.24133	8674
6.24200	8677
6.24267	8681
6.24333	8684
6.24400	8687
6.24467	8690
6.24533	8694
6.24600	8697
6.24667	8700
6.24733	8703
6.24800	8706
6.24867	8709
6.24933	8713
6.25000	8716
6.25067	8719
6.25133	8722
6.25200	8725
6.25267	8728
6.25333	8732
6.25400	8735
6.25467	8738
6.25533	8741
6.25600	8744
6.25667	8747
6.25733	8750
6.25800	8753
6.25867	8756
6.25933	8758
6.26000	8761
6.26067	8764
6.26133	8766
6.26200	8768
6.26267	8771
6.26333	8773
6.26400	8776
6.26467	8778
6.26533	8780
6.26600	8782
6.26667	8784
6.26733	8786
6.26800	8788
6.26867	8790
6.26933	8792
6.27000	8794
6.27067	8795
6.27133	8797
6.27200	8799
6.27267	8800
6.27333	8802
6.27400	8803
6.27467	8804
6.27533	8805
6.27600	8807
6.27667	8808
6.27733	8809
6.27800	8810
6.27867	8810
6.27933	8811
6.28000	8811
6.28067	8812
6.28133	8812
6.28200	8812
6.28267	8812
6.28333	8812
6.28400	8812
6.28467	8812
6.28533	8812
6.28600	8812
6.28667	8811
6.28733	8811
6.28800	8810
6.28867	8810
6.28933	8809
6.29000	8808
6.29067	8807
6.29133	8806
6.29200	8805
6.29267	8804
6.29333	8803
6.29400	8802
6.29467	8800
6.29533	8799
6.29600	8798
6.29667	8797
6.29733	8795
6.29800	8794
6.29867	8792
6.29933	8791
6.30000	8789
6.30067	8787
6.30133	8786
6.30200	8784
6.30267	8782
6.30333	8780
6.30400	8778
6.30467	8776
6.30533	8774
6.30600	8772
6.30667	8770
6.30733	8768
6.30800	8766
6.30867	8764
6.30933	8761
6.31000	8759
6.31067	8756
6.31133	8754
6.31200	8751
6.31267	8749
6.31333	8746
6.31400	8743
6.31467	8741
6.31533	8738
6.31600	8735
6.31667	8732
6.31733	8729
6.31800	8726
6.31867	8723
6.31933	8720
6.32000	8717
6.32067	8713
6.32133	8710
6.32200	8707
6.32267	8703
6.32333	8700
6.32400	8697
6.32467	8693
6.32533	8689
6.32600	8686
6.32667	8682
6.32733	8678
6.32800	8674
6.32867	8671
6.32933	8667
6.33000	8663
6.33067	8659
6.33133	8655
6.33200	8651
6.33267	8647
6.33333	8643
6.33400	8639
6.33467	8635
6.33533	8631
6.33600	8627
6.33667	8623
6.33733	8619
6.33800	8614
6.33867	8610
6.33933	8606
6.34000	8602
6.34067	8598
6.34133	8593
6.34200	8589
6.34267	8585
6.34333	8581
6.34400	8576
6.34467	8572
6.34533	8568
6.34600	8563
6.34667	8559
6.34733	8555
6.34800	8550
6.34867	8546
6.34933	8542
6.35000	8537
6.35067	8533
6.35133	8529
6.35200	8524
6.35267	8520
6.35333	8516
6.35400	8511
6.35467	8507
6.35533	8503
6.35600	8498
6.35667	8494
6.35733	8490
6.35800	8485
6.35867	8481
6.35933	8477
6.36000	8472
6.36067	8468
6.36133	8464
6.36200	8459
6.36267	8455
6.36333	8451
6.36400	8446
6.36467	8442
6.36533	8438
6.36600	8433
6.36667	8429
6.36733	8425
6.36800	8420
6.36867	8416
6.36933	8412
6.37000	8408
6.37067	8404
6.37133	8399
6.37200	8395
6.37267	8391
6.37333	8387
6.37400	8383
6.37467	8379
6.37533	8375
6.37600	8371
6.37667	8367
6.37733	8363
6.37800	8359
6.37867	8355
6.37933	8351
6.38000	8348
6.38067	8344
6.38133	8340
6.38200	8336
6.38267	8332
6.38333	8329
6.38400	8325
6.38467	8321
6.38533	8318
6.38600	8314
6.38667	8310
6.38733	8307
6.38800	8303
6.38867	8300
6.38933	8296
6.39000	8293
6.39067	8289
6.39133	8285
6.39200	8282
6.39267	8278
6.39333	8275
6.39400	8271
6.39467	8268
6.39533	8265
6.39600	8261
6.39667	8258
6.39733	8255
6.39800	8250
6.39867	8248
6.39933	8245

