[Header]
Application Name	LabSolutions
Version	5.73
Data File Name	C:\LabSolutions\Data\Project1\stephen\2016-01-04\88.gcd
Output Date	1/5/2016
Output Time	4:51:45 PM

[Configuration]
Instrument Name	WEISSTA-PC-Instrument1
Instrument #	1
Line #	1
# of Detectors	1
Detector ID	DET#2
Detector Name	DFID1
# of Channels	1

[Chromatogram (Ch1)]
Interval(msec)	40
# of Points	9600
Start Time(min)	0.000
End Time(min)	6.399
R.Time (min)	Intensity
0.00000	19
0.00067	19
0.00133	19
0.00200	19
0.00267	19
0.00333	19
0.00400	19
0.00467	19
0.00533	19
0.00600	20
0.00667	20
0.00733	20
0.00800	21
0.00867	21
0.00933	22
0.01000	22
0.01067	23
0.01133	23
0.01200	24
0.01267	24
0.01333	24
0.01400	25
0.01467	25
0.01533	26
0.01600	26
0.01667	26
0.01733	26
0.01800	27
0.01867	27
0.01933	27
0.02000	27
0.02067	26
0.02133	26
0.02200	26
0.02267	25
0.02333	24
0.02400	24
0.02467	23
0.02533	22
0.02600	21
0.02667	20
0.02733	19
0.02800	18
0.02867	17
0.02933	16
0.03000	15
0.03067	14
0.03133	13
0.03200	12
0.03267	11
0.03333	10
0.03400	9
0.03467	8
0.03533	7
0.03600	6
0.03667	5
0.03733	5
0.03800	4
0.03867	3
0.03933	2
0.04000	2
0.04067	1
0.04133	0
0.04200	-0
0.04267	-1
0.04333	-1
0.04400	-2
0.04467	-2
0.04533	-3
0.04600	-3
0.04667	-4
0.04733	-4
0.04800	-4
0.04867	-5
0.04933	-5
0.05000	-5
0.05067	-5
0.05133	-5
0.05200	-6
0.05267	-6
0.05333	-6
0.05400	-6
0.05467	-6
0.05533	-7
0.05600	-7
0.05667	-7
0.05733	-7
0.05800	-7
0.05867	-8
0.05933	-8
0.06000	-8
0.06067	-8
0.06133	-8
0.06200	-9
0.06267	-9
0.06333	-9
0.06400	-9
0.06467	-9
0.06533	-9
0.06600	-10
0.06667	-10
0.06733	-10
0.06800	-10
0.06867	-10
0.06933	-10
0.07000	-10
0.07067	-10
0.07133	-10
0.07200	-10
0.07267	-10
0.07333	-10
0.07400	-10
0.07467	-10
0.07533	-10
0.07600	-10
0.07667	-10
0.07733	-10
0.07800	-10
0.07867	-10
0.07933	-10
0.08000	-10
0.08067	-10
0.08133	-10
0.08200	-10
0.08267	-10
0.08333	-10
0.08400	-10
0.08467	-10
0.08533	-9
0.08600	-8
0.08667	-5
0.08733	4
0.08800	18
0.08867	41
0.08933	77
0.09000	122
0.09067	190
0.09133	279
0.09200	394
0.09267	521
0.09333	652
0.09400	795
0.09467	968
0.09533	1176
0.09600	1410
0.09667	1670
0.09733	1952
0.09800	2249
0.09867	2552
0.09933	2876
0.10000	3224
0.10067	3566
0.10133	3914
0.10200	4281
0.10267	4656
0.10333	5023
0.10400	5391
0.10467	5781
0.10533	6179
0.10600	6562
0.10667	6952
0.10733	7339
0.10800	7715
0.10867	8074
0.10933	8415
0.11000	8737
0.11067	9039
0.11133	9329
0.11200	9634
0.11267	9927
0.11333	10206
0.11400	10510
0.11467	10837
0.11533	11164
0.11600	11478
0.11667	11772
0.11733	12051
0.11800	12310
0.11867	12550
0.11933	12779
0.12000	13016
0.12067	13282
0.12133	13564
0.12200	13836
0.12267	14100
0.12333	14347
0.12400	14590
0.12467	14817
0.12533	15036
0.12600	15238
0.12667	15423
0.12733	15591
0.12800	15735
0.12867	15851
0.12933	15938
0.13000	16001
0.13067	16069
0.13133	16194
0.13200	16617
0.13267	18047
0.13333	22207
0.13400	32515
0.13467	55201
0.13533	100102
0.13600	182598
0.13667	323546
0.13733	549411
0.13800	888593
0.13867	1370895
0.13933	2023831
0.14000	2873241
0.14067	3940208
0.14133	5242350
0.14200	6791408
0.14267	8595121
0.14333	10656404
0.14400	12975596
0.14467	15551316
0.14533	18381620
0.14600	21463072
0.14667	24787082
0.14733	28337646
0.14800	32101447
0.14867	36079135
0.14933	40274924
0.15000	44685667
0.15067	49299250
0.15133	54097655
0.15200	59059408
0.15267	64161168
0.15333	69379833
0.15400	74693644
0.15467	80082761
0.15533	85528854
0.15600	91015263
0.15667	96526506
0.15733	102048243
0.15800	107567065
0.15867	113070482
0.15933	118546812
0.16000	123985243
0.16067	129375670
0.16133	134709032
0.16200	139977164
0.16267	145172995
0.16333	150289733
0.16400	155320223
0.16467	160257030
0.16533	165092751
0.16600	169820470
0.16667	174433578
0.16733	178925947
0.16800	183291774
0.16867	187525774
0.16933	191622768
0.17000	195578205
0.17067	199387522
0.17133	203046211
0.17200	206549369
0.17267	209892442
0.17333	213070393
0.17400	216078189
0.17467	218910696
0.17533	221562996
0.17600	224030325
0.17667	226308513
0.17733	228394225
0.17800	230284984
0.17867	231979408
0.17933	233476935
0.18000	234778260
0.18067	235884851
0.18133	236798915
0.18200	237523047
0.18267	238060461
0.18333	238414595
0.18400	238589446
0.18467	238589086
0.18533	238418137
0.18600	238081207
0.18667	237583323
0.18733	236929494
0.18800	236125005
0.18867	235175070
0.18933	234085095
0.19000	232860547
0.19067	231507079
0.19133	230030359
0.19200	228436057
0.19267	226729804
0.19333	224917278
0.19400	223004163
0.19467	220996143
0.19533	218899042
0.19600	216718743
0.19667	214461186
0.19733	212132266
0.19800	209737881
0.19867	207283766
0.19933	204775703
0.20000	202219662
0.20067	199621727
0.20133	196987361
0.20200	194320968
0.20267	191625961
0.20333	188905258
0.20400	186161523
0.20467	183397490
0.20533	180615918
0.20600	177819669
0.20667	175011644
0.20733	172194779
0.20800	169372012
0.20867	166546237
0.20933	163720326
0.21000	160897082
0.21067	158079221
0.21133	155269341
0.21200	152469957
0.21267	149683455
0.21333	146912107
0.21400	144158038
0.21467	141423261
0.21533	138709646
0.21600	136018948
0.21667	133352781
0.21733	130712656
0.21800	128099961
0.21867	125515976
0.21933	122961861
0.22000	120438660
0.22067	117947311
0.22133	115488664
0.22200	113063463
0.22267	110672360
0.22333	108315923
0.22400	105994631
0.22467	103708883
0.22533	101458994
0.22600	99245219
0.22667	97067746
0.22733	94926705
0.22800	92822165
0.22867	90754145
0.22933	88722606
0.23000	86727464
0.23067	84768585
0.23133	82845806
0.23200	80958922
0.23267	79107706
0.23333	77291890
0.23400	75511179
0.23467	73765254
0.23533	72053780
0.23600	70376391
0.23667	68732703
0.23733	67122312
0.23800	65544796
0.23867	63999725
0.23933	62486655
0.24000	61005117
0.24067	59554639
0.24133	58134748
0.24200	56744962
0.24267	55384801
0.24333	54053776
0.24400	52751402
0.24467	51477187
0.24533	50230646
0.24600	49011295
0.24667	47818650
0.24733	46652227
0.24800	45511545
0.24867	44396129
0.24933	43305510
0.25000	42239219
0.25067	41196789
0.25133	40177762
0.25200	39181684
0.25267	38208109
0.25333	37256598
0.25400	36326719
0.25467	35418045
0.25533	34530160
0.25600	33662649
0.25667	32815107
0.25733	31987135
0.25800	31178341
0.25867	30388342
0.25933	29616762
0.26000	28863231
0.26067	28127386
0.26133	27408870
0.26200	26707336
0.26267	26022438
0.26333	25353835
0.26400	24701194
0.26467	24064191
0.26533	23442503
0.26600	22835816
0.26667	22243816
0.26733	21666197
0.26800	21102658
0.26867	20552904
0.26933	20016644
0.27000	19493596
0.27067	18983478
0.27133	18486016
0.27200	18000939
0.27267	17527982
0.27333	17066885
0.27400	16617393
0.27467	16179254
0.27533	15752221
0.27600	15336051
0.27667	14930504
0.27733	14535349
0.27800	14150354
0.27867	13775297
0.27933	13409955
0.28000	13054112
0.28067	12707557
0.28133	12370080
0.28200	12041478
0.28267	11721551
0.28333	11410106
0.28400	11106949
0.28467	10811894
0.28533	10524760
0.28600	10245370
0.28667	9973553
0.28733	9709141
0.28800	9451972
0.28867	9201888
0.28933	8958740
0.29000	8722378
0.29067	8492663
0.29133	8269455
0.29200	8052618
0.29267	7842022
0.29333	7637541
0.29400	7439052
0.29467	7246439
0.29533	7059591
0.29600	6878401
0.29667	6702768
0.29733	6532594
0.29800	6367785
0.29867	6208256
0.29933	6053930
0.30000	5904739
0.30067	5760625
0.30133	5621536
0.30200	5487433
0.30267	5358280
0.30333	5234038
0.30400	5114661
0.30467	5000105
0.30533	4890311
0.30600	4785212
0.30667	4684724
0.30733	4588753
0.30800	4497194
0.30867	4409933
0.30933	4326846
0.31000	4247799
0.31067	4172654
0.31133	4101272
0.31200	4033510
0.31267	3969223
0.31333	3908267
0.31400	3850496
0.31467	3795766
0.31533	3743937
0.31600	3694869
0.31667	3648426
0.31733	3604470
0.31800	3562868
0.31867	3523489
0.31933	3486204
0.32000	3450891
0.32067	3417431
0.32133	3385717
0.32200	3355645
0.32267	3327121
0.32333	3300057
0.32400	3274367
0.32467	3249971
0.32533	3226788
0.32600	3204735
0.32667	3183733
0.32733	3163699
0.32800	3144552
0.32867	3126215
0.32933	3108610
0.33000	3091660
0.33067	3075286
0.33133	3059411
0.33200	3043962
0.33267	3028864
0.33333	3014041
0.33400	2999409
0.33467	2984883
0.33533	2970369
0.33600	2955770
0.33667	2940986
0.33733	2925918
0.33800	2910469
0.33867	2894543
0.33933	2878050
0.34000	2860905
0.34067	2843027
0.34133	2824344
0.34200	2804790
0.34267	2784310
0.34333	2762860
0.34400	2740408
0.34467	2716936
0.34533	2692440
0.34600	2666929
0.34667	2640422
0.34733	2612952
0.34800	2584561
0.34867	2555299
0.34933	2525222
0.35000	2494391
0.35067	2462869
0.35133	2430720
0.35200	2398011
0.35267	2364806
0.35333	2331170
0.35400	2297165
0.35467	2262852
0.35533	2228291
0.35600	2193536
0.35667	2158642
0.35733	2123660
0.35800	2088639
0.35867	2053625
0.35933	2018661
0.36000	1983786
0.36067	1949040
0.36133	1914456
0.36200	1880068
0.36267	1845905
0.36333	1811995
0.36400	1778363
0.36467	1745032
0.36533	1712025
0.36600	1679360
0.36667	1647054
0.36733	1615124
0.36800	1583585
0.36867	1552448
0.36933	1521725
0.37000	1491425
0.37067	1461558
0.37133	1432131
0.37200	1403151
0.37267	1374625
0.37333	1346558
0.37400	1318954
0.37467	1291815
0.37533	1265146
0.37600	1238946
0.37667	1213216
0.37733	1187956
0.37800	1163164
0.37867	1138840
0.37933	1114980
0.38000	1091582
0.38067	1068643
0.38133	1046160
0.38200	1024128
0.38267	1002545
0.38333	981404
0.38400	960702
0.38467	940435
0.38533	920596
0.38600	901180
0.38667	882182
0.38733	863595
0.38800	845413
0.38867	827632
0.38933	810246
0.39000	793251
0.39067	776645
0.39133	760424
0.39200	744584
0.39267	729121
0.39333	714031
0.39400	699312
0.39467	684957
0.39533	670965
0.39600	657331
0.39667	644051
0.39733	631123
0.39800	618544
0.39867	606311
0.39933	594422
0.40000	582876
0.40067	571670
0.40133	560799
0.40200	550258
0.40267	540039
0.40333	530133
0.40400	520527
0.40467	511214
0.40533	502183
0.40600	493425
0.40667	484929
0.40733	476686
0.40800	468686
0.40867	460921
0.40933	453382
0.41000	446061
0.41067	438951
0.41133	432044
0.41200	425333
0.41267	418812
0.41333	412474
0.41400	406313
0.41467	400323
0.41533	394499
0.41600	388835
0.41667	383325
0.41733	377965
0.41800	372749
0.41867	367674
0.41933	362734
0.42000	357926
0.42067	353246
0.42133	348688
0.42200	344250
0.42267	339926
0.42333	335715
0.42400	331612
0.42467	327613
0.42533	323715
0.42600	319914
0.42667	316207
0.42733	312590
0.42800	309061
0.42867	305617
0.42933	302255
0.43000	298972
0.43067	295766
0.43133	292634
0.43200	289574
0.43267	286583
0.43333	283659
0.43400	280799
0.43467	278001
0.43533	275262
0.43600	272581
0.43667	269955
0.43733	267382
0.43800	264860
0.43867	262388
0.43933	259963
0.44000	257584
0.44067	255250
0.44133	252958
0.44200	250708
0.44267	248497
0.44333	246326
0.44400	244191
0.44467	242092
0.44533	240029
0.44600	237999
0.44667	236001
0.44733	234035
0.44800	232099
0.44867	230193
0.44933	228316
0.45000	226466
0.45067	224643
0.45133	222846
0.45200	221075
0.45267	219328
0.45333	217605
0.45400	215905
0.45467	214227
0.45533	212572
0.45600	210937
0.45667	209324
0.45733	207730
0.45800	206156
0.45867	204602
0.45933	203067
0.46000	201550
0.46067	200051
0.46133	198570
0.46200	197106
0.46267	195660
0.46333	194230
0.46400	192817
0.46467	191420
0.46533	190040
0.46600	188675
0.46667	187325
0.46733	185992
0.46800	184673
0.46867	183369
0.46933	182079
0.47000	180805
0.47067	179544
0.47133	178297
0.47200	177064
0.47267	175845
0.47333	174639
0.47400	173446
0.47467	172265
0.47533	171098
0.47600	169942
0.47667	168799
0.47733	167668
0.47800	166548
0.47867	165439
0.47933	164342
0.48000	163256
0.48067	162181
0.48133	161116
0.48200	160061
0.48267	159016
0.48333	157982
0.48400	156957
0.48467	155942
0.48533	154936
0.48600	153939
0.48667	152952
0.48733	151973
0.48800	151003
0.48867	150042
0.48933	149089
0.49000	148145
0.49067	147209
0.49133	146281
0.49200	145361
0.49267	144448
0.49333	143544
0.49400	142647
0.49467	141758
0.49533	140876
0.49600	140002
0.49667	139135
0.49733	138275
0.49800	137422
0.49867	136576
0.49933	135737
0.50000	134905
0.50067	134080
0.50133	133262
0.50200	132450
0.50267	131645
0.50333	130846
0.50400	130054
0.50467	129268
0.50533	128489
0.50600	127716
0.50667	126949
0.50733	126189
0.50800	125435
0.50867	124687
0.50933	123945
0.51000	123209
0.51067	122480
0.51133	121756
0.51200	121039
0.51267	120328
0.51333	119623
0.51400	118924
0.51467	118231
0.51533	117544
0.51600	116863
0.51667	116188
0.51733	115519
0.51800	114856
0.51867	114198
0.51933	113547
0.52000	112901
0.52067	112261
0.52133	111626
0.52200	110996
0.52267	110371
0.52333	109752
0.52400	109137
0.52467	108527
0.52533	107922
0.52600	107321
0.52667	106725
0.52733	106134
0.52800	105547
0.52867	104965
0.52933	104387
0.53000	103814
0.53067	103245
0.53133	102681
0.53200	102121
0.53267	101565
0.53333	101014
0.53400	100467
0.53467	99925
0.53533	99388
0.53600	98854
0.53667	98325
0.53733	97801
0.53800	97281
0.53867	96765
0.53933	96253
0.54000	95745
0.54067	95241
0.54133	94742
0.54200	94246
0.54267	93754
0.54333	93266
0.54400	92783
0.54467	92303
0.54533	91826
0.54600	91354
0.54667	90885
0.54733	90420
0.54800	89959
0.54867	89502
0.54933	89048
0.55000	88597
0.55067	88150
0.55133	87707
0.55200	87267
0.55267	86830
0.55333	86397
0.55400	85967
0.55467	85541
0.55533	85118
0.55600	84698
0.55667	84282
0.55733	83869
0.55800	83459
0.55867	83052
0.55933	82649
0.56000	82249
0.56067	81852
0.56133	81459
0.56200	81068
0.56267	80681
0.56333	80296
0.56400	79915
0.56467	79537
0.56533	79163
0.56600	78791
0.56667	78423
0.56733	78058
0.56800	77696
0.56867	77338
0.56933	76983
0.57000	76631
0.57067	76282
0.57133	75937
0.57200	75595
0.57267	75257
0.57333	74922
0.57400	74589
0.57467	74261
0.57533	73935
0.57600	73612
0.57667	73293
0.57733	72977
0.57800	72664
0.57867	72354
0.57933	72046
0.58000	71742
0.58067	71440
0.58133	71141
0.58200	70845
0.58267	70551
0.58333	70259
0.58400	69969
0.58467	69682
0.58533	69397
0.58600	69114
0.58667	68833
0.58733	68554
0.58800	68277
0.58867	68002
0.58933	67729
0.59000	67458
0.59067	67188
0.59133	66921
0.59200	66655
0.59267	66391
0.59333	66128
0.59400	65867
0.59467	65607
0.59533	65350
0.59600	65094
0.59667	64839
0.59733	64586
0.59800	64335
0.59867	64085
0.59933	63837
0.60000	63590
0.60067	63345
0.60133	63102
0.60200	62860
0.60267	62620
0.60333	62382
0.60400	62145
0.60467	61910
0.60533	61677
0.60600	61445
0.60667	61215
0.60733	60987
0.60800	60761
0.60867	60537
0.60933	60314
0.61000	60094
0.61067	59876
0.61133	59659
0.61200	59444
0.61267	59232
0.61333	59022
0.61400	58813
0.61467	58607
0.61533	58403
0.61600	58201
0.61667	58002
0.61733	57805
0.61800	57611
0.61867	57421
0.61933	57234
0.62000	57051
0.62067	56874
0.62133	56702
0.62200	56537
0.62267	56379
0.62333	56230
0.62400	56092
0.62467	55964
0.62533	55850
0.62600	55749
0.62667	55664
0.62733	55596
0.62800	55545
0.62867	55512
0.62933	55498
0.63000	55504
0.63067	55528
0.63133	55570
0.63200	55630
0.63267	55706
0.63333	55796
0.63400	55900
0.63467	56014
0.63533	56136
0.63600	56265
0.63667	56397
0.63733	56530
0.63800	56662
0.63867	56789
0.63933	56911
0.64000	57025
0.64067	57129
0.64133	57222
0.64200	57302
0.64267	57369
0.64333	57422
0.64400	57461
0.64467	57484
0.64533	57492
0.64600	57485
0.64667	57464
0.64733	57427
0.64800	57377
0.64867	57312
0.64933	57235
0.65000	57145
0.65067	57043
0.65133	56931
0.65200	56807
0.65267	56674
0.65333	56532
0.65400	56381
0.65467	56223
0.65533	56057
0.65600	55885
0.65667	55707
0.65733	55524
0.65800	55335
0.65867	55142
0.65933	54945
0.66000	54745
0.66067	54541
0.66133	54334
0.66200	54125
0.66267	53914
0.66333	53700
0.66400	53485
0.66467	53269
0.66533	53051
0.66600	52833
0.66667	52614
0.66733	52394
0.66800	52174
0.66867	51954
0.66933	51734
0.67000	51514
0.67067	51294
0.67133	51074
0.67200	50855
0.67267	50636
0.67333	50418
0.67400	50201
0.67467	49984
0.67533	49767
0.67600	49552
0.67667	49338
0.67733	49124
0.67800	48912
0.67867	48700
0.67933	48490
0.68000	48282
0.68067	48075
0.68133	47869
0.68200	47666
0.68267	47464
0.68333	47264
0.68400	47066
0.68467	46870
0.68533	46677
0.68600	46486
0.68667	46299
0.68733	46114
0.68800	45932
0.68867	45754
0.68933	45579
0.69000	45409
0.69067	45243
0.69133	45081
0.69200	44925
0.69267	44774
0.69333	44630
0.69400	44492
0.69467	44362
0.69533	44241
0.69600	44130
0.69667	44029
0.69733	43940
0.69800	43865
0.69867	43805
0.69933	43762
0.70000	43738
0.70067	43734
0.70133	43753
0.70200	43796
0.70267	43864
0.70333	43959
0.70400	44081
0.70467	44231
0.70533	44409
0.70600	44613
0.70667	44843
0.70733	45097
0.70800	45373
0.70867	45668
0.70933	45978
0.71000	46301
0.71067	46631
0.71133	46967
0.71200	47303
0.71267	47637
0.71333	47964
0.71400	48281
0.71467	48584
0.71533	48871
0.71600	49140
0.71667	49388
0.71733	49614
0.71800	49818
0.71867	49997
0.71933	50152
0.72000	50282
0.72067	50388
0.72133	50469
0.72200	50527
0.72267	50562
0.72333	50575
0.72400	50566
0.72467	50537
0.72533	50489
0.72600	50423
0.72667	50339
0.72733	50239
0.72800	50125
0.72867	49996
0.72933	49854
0.73000	49699
0.73067	49534
0.73133	49358
0.73200	49173
0.73267	48979
0.73333	48777
0.73400	48567
0.73467	48351
0.73533	48130
0.73600	47902
0.73667	47670
0.73733	47434
0.73800	47195
0.73867	46952
0.73933	46706
0.74000	46458
0.74067	46208
0.74133	45956
0.74200	45703
0.74267	45450
0.74333	45196
0.74400	44942
0.74467	44687
0.74533	44434
0.74600	44180
0.74667	43928
0.74733	43676
0.74800	43426
0.74867	43177
0.74933	42929
0.75000	42684
0.75067	42440
0.75133	42198
0.75200	41958
0.75267	41720
0.75333	41485
0.75400	41252
0.75467	41021
0.75533	40793
0.75600	40567
0.75667	40344
0.75733	40123
0.75800	39905
0.75867	39690
0.75933	39478
0.76000	39268
0.76067	39062
0.76133	38858
0.76200	38656
0.76267	38458
0.76333	38263
0.76400	38070
0.76467	37880
0.76533	37693
0.76600	37509
0.76667	37327
0.76733	37149
0.76800	36973
0.76867	36800
0.76933	36629
0.77000	36462
0.77067	36297
0.77133	36135
0.77200	35976
0.77267	35819
0.77333	35665
0.77400	35514
0.77467	35365
0.77533	35219
0.77600	35075
0.77667	34934
0.77733	34796
0.77800	34660
0.77867	34526
0.77933	34395
0.78000	34266
0.78067	34139
0.78133	34015
0.78200	33892
0.78267	33772
0.78333	33654
0.78400	33538
0.78467	33424
0.78533	33311
0.78600	33201
0.78667	33093
0.78733	32986
0.78800	32882
0.78867	32779
0.78933	32678
0.79000	32578
0.79067	32480
0.79133	32384
0.79200	32289
0.79267	32196
0.79333	32104
0.79400	32014
0.79467	31925
0.79533	31838
0.79600	31751
0.79667	31667
0.79733	31583
0.79800	31501
0.79867	31420
0.79933	31340
0.80000	31262
0.80067	31184
0.80133	31108
0.80200	31033
0.80267	30958
0.80333	30885
0.80400	30813
0.80467	30742
0.80533	30671
0.80600	30602
0.80667	30534
0.80733	30466
0.80800	30399
0.80867	30333
0.80933	30268
0.81000	30203
0.81067	30139
0.81133	30076
0.81200	30013
0.81267	29951
0.81333	29890
0.81400	29829
0.81467	29769
0.81533	29709
0.81600	29650
0.81667	29591
0.81733	29533
0.81800	29475
0.81867	29418
0.81933	29362
0.82000	29305
0.82067	29250
0.82133	29195
0.82200	29140
0.82267	29086
0.82333	29032
0.82400	28979
0.82467	28926
0.82533	28873
0.82600	28821
0.82667	28770
0.82733	28719
0.82800	28668
0.82867	28618
0.82933	28568
0.83000	28518
0.83067	28469
0.83133	28421
0.83200	28372
0.83267	28324
0.83333	28277
0.83400	28230
0.83467	28183
0.83533	28136
0.83600	28090
0.83667	28045
0.83733	27999
0.83800	27954
0.83867	27910
0.83933	27865
0.84000	27821
0.84067	27778
0.84133	27734
0.84200	27691
0.84267	27648
0.84333	27606
0.84400	27564
0.84467	27522
0.84533	27480
0.84600	27439
0.84667	27397
0.84733	27356
0.84800	27316
0.84867	27276
0.84933	27235
0.85000	27196
0.85067	27156
0.85133	27117
0.85200	27078
0.85267	27040
0.85333	27001
0.85400	26963
0.85467	26925
0.85533	26888
0.85600	26850
0.85667	26813
0.85733	26776
0.85800	26740
0.85867	26703
0.85933	26667
0.86000	26631
0.86067	26595
0.86133	26559
0.86200	26524
0.86267	26488
0.86333	26453
0.86400	26419
0.86467	26384
0.86533	26350
0.86600	26315
0.86667	26281
0.86733	26248
0.86800	26214
0.86867	26181
0.86933	26147
0.87000	26114
0.87067	26081
0.87133	26049
0.87200	26016
0.87267	25984
0.87333	25951
0.87400	25919
0.87467	25887
0.87533	25855
0.87600	25823
0.87667	25791
0.87733	25760
0.87800	25728
0.87867	25697
0.87933	25666
0.88000	25635
0.88067	25604
0.88133	25574
0.88200	25543
0.88267	25513
0.88333	25482
0.88400	25452
0.88467	25422
0.88533	25393
0.88600	25363
0.88667	25333
0.88733	25304
0.88800	25275
0.88867	25245
0.88933	25217
0.89000	25188
0.89067	25159
0.89133	25131
0.89200	25102
0.89267	25074
0.89333	25046
0.89400	25019
0.89467	24991
0.89533	24964
0.89600	24937
0.89667	24910
0.89733	24883
0.89800	24857
0.89867	24831
0.89933	24805
0.90000	24779
0.90067	24754
0.90133	24729
0.90200	24705
0.90267	24681
0.90333	24658
0.90400	24635
0.90467	24612
0.90533	24590
0.90600	24568
0.90667	24547
0.90733	24527
0.90800	24507
0.90867	24487
0.90933	24468
0.91000	24450
0.91067	24432
0.91133	24415
0.91200	24398
0.91267	24381
0.91333	24365
0.91400	24349
0.91467	24333
0.91533	24318
0.91600	24303
0.91667	24289
0.91733	24274
0.91800	24260
0.91867	24245
0.91933	24231
0.92000	24217
0.92067	24203
0.92133	24189
0.92200	24174
0.92267	24160
0.92333	24146
0.92400	24132
0.92467	24118
0.92533	24104
0.92600	24089
0.92667	24075
0.92733	24060
0.92800	24046
0.92867	24031
0.92933	24017
0.93000	24002
0.93067	23987
0.93133	23972
0.93200	23957
0.93267	23942
0.93333	23927
0.93400	23912
0.93467	23896
0.93533	23881
0.93600	23865
0.93667	23850
0.93733	23834
0.93800	23818
0.93867	23802
0.93933	23786
0.94000	23770
0.94067	23753
0.94133	23737
0.94200	23720
0.94267	23704
0.94333	23687
0.94400	23670
0.94467	23652
0.94533	23635
0.94600	23617
0.94667	23599
0.94733	23581
0.94800	23563
0.94867	23544
0.94933	23526
0.95000	23507
0.95067	23488
0.95133	23468
0.95200	23449
0.95267	23429
0.95333	23409
0.95400	23389
0.95467	23369
0.95533	23348
0.95600	23328
0.95667	23307
0.95733	23286
0.95800	23265
0.95867	23244
0.95933	23223
0.96000	23202
0.96067	23181
0.96133	23160
0.96200	23139
0.96267	23118
0.96333	23097
0.96400	23076
0.96467	23055
0.96533	23034
0.96600	23013
0.96667	22992
0.96733	22971
0.96800	22950
0.96867	22929
0.96933	22908
0.97000	22887
0.97067	22866
0.97133	22845
0.97200	22824
0.97267	22803
0.97333	22782
0.97400	22761
0.97467	22739
0.97533	22717
0.97600	22695
0.97667	22673
0.97733	22651
0.97800	22629
0.97867	22606
0.97933	22583
0.98000	22560
0.98067	22537
0.98133	22514
0.98200	22490
0.98267	22466
0.98333	22442
0.98400	22418
0.98467	22394
0.98533	22369
0.98600	22344
0.98667	22319
0.98733	22294
0.98800	22269
0.98867	22244
0.98933	22219
0.99000	22194
0.99067	22168
0.99133	22143
0.99200	22117
0.99267	22092
0.99333	22067
0.99400	22041
0.99467	22016
0.99533	21990
0.99600	21965
0.99667	21940
0.99733	21915
0.99800	21889
0.99867	21864
0.99933	21839
1.00000	21814
1.00067	21789
1.00133	21765
1.00200	21740
1.00267	21715
1.00333	21691
1.00400	21666
1.00467	21642
1.00533	21618
1.00600	21593
1.00667	21569
1.00733	21545
1.00800	21521
1.00867	21498
1.00933	21474
1.01000	21451
1.01067	21428
1.01133	21404
1.01200	21381
1.01267	21359
1.01333	21336
1.01400	21314
1.01467	21292
1.01533	21270
1.01600	21248
1.01667	21227
1.01733	21206
1.01800	21185
1.01867	21165
1.01933	21145
1.02000	21125
1.02067	21106
1.02133	21087
1.02200	21068
1.02267	21049
1.02333	21031
1.02400	21013
1.02467	20996
1.02533	20979
1.02600	20962
1.02667	20945
1.02733	20929
1.02800	20913
1.02867	20897
1.02933	20882
1.03000	20867
1.03067	20852
1.03133	20837
1.03200	20822
1.03267	20807
1.03333	20793
1.03400	20778
1.03467	20764
1.03533	20749
1.03600	20735
1.03667	20720
1.03733	20706
1.03800	20692
1.03867	20677
1.03933	20663
1.04000	20649
1.04067	20634
1.04133	20619
1.04200	20604
1.04267	20590
1.04333	20574
1.04400	20559
1.04467	20544
1.04533	20529
1.04600	20513
1.04667	20498
1.04733	20482
1.04800	20466
1.04867	20450
1.04933	20434
1.05000	20418
1.05067	20402
1.05133	20386
1.05200	20370
1.05267	20353
1.05333	20337
1.05400	20321
1.05467	20304
1.05533	20288
1.05600	20271
1.05667	20254
1.05733	20237
1.05800	20221
1.05867	20204
1.05933	20187
1.06000	20170
1.06067	20153
1.06133	20137
1.06200	20120
1.06267	20103
1.06333	20086
1.06400	20069
1.06467	20053
1.06533	20036
1.06600	20019
1.06667	20002
1.06733	19986
1.06800	19969
1.06867	19953
1.06933	19937
1.07000	19920
1.07067	19904
1.07133	19888
1.07200	19872
1.07267	19856
1.07333	19840
1.07400	19824
1.07467	19808
1.07533	19793
1.07600	19777
1.07667	19762
1.07733	19746
1.07800	19731
1.07867	19716
1.07933	19701
1.08000	19687
1.08067	19672
1.08133	19658
1.08200	19644
1.08267	19629
1.08333	19615
1.08400	19602
1.08467	19588
1.08533	19574
1.08600	19561
1.08667	19548
1.08733	19534
1.08800	19521
1.08867	19509
1.08933	19496
1.09000	19483
1.09067	19470
1.09133	19458
1.09200	19446
1.09267	19433
1.09333	19421
1.09400	19409
1.09467	19397
1.09533	19385
1.09600	19373
1.09667	19361
1.09733	19350
1.09800	19338
1.09867	19327
1.09933	19316
1.10000	19305
1.10067	19294
1.10133	19283
1.10200	19273
1.10267	19262
1.10333	19252
1.10400	19243
1.10467	19233
1.10533	19224
1.10600	19215
1.10667	19206
1.10733	19198
1.10800	19190
1.10867	19183
1.10933	19176
1.11000	19169
1.11067	19162
1.11133	19155
1.11200	19149
1.11267	19143
1.11333	19137
1.11400	19132
1.11467	19126
1.11533	19121
1.11600	19115
1.11667	19110
1.11733	19105
1.11800	19099
1.11867	19094
1.11933	19088
1.12000	19083
1.12067	19077
1.12133	19072
1.12200	19066
1.12267	19060
1.12333	19053
1.12400	19047
1.12467	19041
1.12533	19034
1.12600	19027
1.12667	19020
1.12733	19012
1.12800	19005
1.12867	18997
1.12933	18990
1.13000	18982
1.13067	18973
1.13133	18965
1.13200	18957
1.13267	18948
1.13333	18939
1.13400	18930
1.13467	18921
1.13533	18912
1.13600	18902
1.13667	18893
1.13733	18883
1.13800	18873
1.13867	18863
1.13933	18853
1.14000	18843
1.14067	18833
1.14133	18823
1.14200	18812
1.14267	18801
1.14333	18791
1.14400	18780
1.14467	18769
1.14533	18758
1.14600	18747
1.14667	18735
1.14733	18724
1.14800	18712
1.14867	18701
1.14933	18689
1.15000	18677
1.15067	18665
1.15133	18653
1.15200	18641
1.15267	18629
1.15333	18617
1.15400	18605
1.15467	18593
1.15533	18581
1.15600	18569
1.15667	18556
1.15733	18544
1.15800	18532
1.15867	18520
1.15933	18508
1.16000	18496
1.16067	18484
1.16133	18471
1.16200	18459
1.16267	18447
1.16333	18435
1.16400	18423
1.16467	18411
1.16533	18400
1.16600	18388
1.16667	18376
1.16733	18364
1.16800	18353
1.16867	18341
1.16933	18329
1.17000	18318
1.17067	18306
1.17133	18295
1.17200	18284
1.17267	18272
1.17333	18261
1.17400	18250
1.17467	18239
1.17533	18228
1.17600	18217
1.17667	18206
1.17733	18196
1.17800	18185
1.17867	18175
1.17933	18164
1.18000	18154
1.18067	18144
1.18133	18134
1.18200	18124
1.18267	18114
1.18333	18105
1.18400	18095
1.18467	18086
1.18533	18076
1.18600	18067
1.18667	18058
1.18733	18049
1.18800	18041
1.18867	18032
1.18933	18024
1.19000	18016
1.19067	18008
1.19133	18000
1.19200	17993
1.19267	17986
1.19333	17979
1.19400	17972
1.19467	17965
1.19533	17959
1.19600	17953
1.19667	17947
1.19733	17941
1.19800	17935
1.19867	17930
1.19933	17925
1.20000	17920
1.20067	17915
1.20133	17910
1.20200	17905
1.20267	17901
1.20333	17897
1.20400	17893
1.20467	17889
1.20533	17885
1.20600	17882
1.20667	17878
1.20733	17875
1.20800	17872
1.20867	17869
1.20933	17866
1.21000	17863
1.21067	17861
1.21133	17858
1.21200	17856
1.21267	17854
1.21333	17852
1.21400	17851
1.21467	17849
1.21533	17848
1.21600	17847
1.21667	17846
1.21733	17845
1.21800	17845
1.21867	17844
1.21933	17844
1.22000	17844
1.22067	17844
1.22133	17845
1.22200	17845
1.22267	17846
1.22333	17847
1.22400	17848
1.22467	17849
1.22533	17851
1.22600	17853
1.22667	17854
1.22733	17856
1.22800	17858
1.22867	17861
1.22933	17863
1.23000	17866
1.23067	17869
1.23133	17871
1.23200	17874
1.23267	17878
1.23333	17881
1.23400	17884
1.23467	17888
1.23533	17892
1.23600	17896
1.23667	17900
1.23733	17904
1.23800	17908
1.23867	17912
1.23933	17917
1.24000	17922
1.24067	17927
1.24133	17932
1.24200	17938
1.24267	17944
1.24333	17951
1.24400	17958
1.24467	17965
1.24533	17974
1.24600	17982
1.24667	17992
1.24733	18003
1.24800	18014
1.24867	18026
1.24933	18040
1.25000	18055
1.25067	18071
1.25133	18088
1.25200	18107
1.25267	18127
1.25333	18149
1.25400	18172
1.25467	18197
1.25533	18223
1.25600	18251
1.25667	18280
1.25733	18311
1.25800	18343
1.25867	18376
1.25933	18411
1.26000	18446
1.26067	18481
1.26133	18517
1.26200	18554
1.26267	18591
1.26333	18627
1.26400	18664
1.26467	18700
1.26533	18736
1.26600	18771
1.26667	18805
1.26733	18838
1.26800	18871
1.26867	18902
1.26933	18931
1.27000	18960
1.27067	18987
1.27133	19012
1.27200	19036
1.27267	19058
1.27333	19078
1.27400	19097
1.27467	19114
1.27533	19130
1.27600	19143
1.27667	19155
1.27733	19165
1.27800	19174
1.27867	19181
1.27933	19186
1.28000	19190
1.28067	19192
1.28133	19193
1.28200	19193
1.28267	19191
1.28333	19187
1.28400	19183
1.28467	19177
1.28533	19170
1.28600	19162
1.28667	19153
1.28733	19143
1.28800	19132
1.28867	19120
1.28933	19107
1.29000	19093
1.29067	19079
1.29133	19063
1.29200	19048
1.29267	19031
1.29333	19014
1.29400	18996
1.29467	18978
1.29533	18960
1.29600	18940
1.29667	18921
1.29733	18901
1.29800	18881
1.29867	18860
1.29933	18839
1.30000	18818
1.30067	18797
1.30133	18775
1.30200	18753
1.30267	18731
1.30333	18709
1.30400	18686
1.30467	18664
1.30533	18641
1.30600	18618
1.30667	18595
1.30733	18572
1.30800	18548
1.30867	18525
1.30933	18502
1.31000	18478
1.31067	18455
1.31133	18431
1.31200	18408
1.31267	18384
1.31333	18360
1.31400	18337
1.31467	18313
1.31533	18289
1.31600	18266
1.31667	18242
1.31733	18218
1.31800	18195
1.31867	18171
1.31933	18148
1.32000	18124
1.32067	18101
1.32133	18078
1.32200	18054
1.32267	18031
1.32333	18008
1.32400	17985
1.32467	17962
1.32533	17939
1.32600	17917
1.32667	17894
1.32733	17872
1.32800	17849
1.32867	17827
1.32933	17805
1.33000	17783
1.33067	17761
1.33133	17739
1.33200	17718
1.33267	17696
1.33333	17675
1.33400	17654
1.33467	17633
1.33533	17612
1.33600	17591
1.33667	17571
1.33733	17551
1.33800	17530
1.33867	17510
1.33933	17491
1.34000	17471
1.34067	17452
1.34133	17432
1.34200	17413
1.34267	17394
1.34333	17376
1.34400	17357
1.34467	17339
1.34533	17321
1.34600	17303
1.34667	17285
1.34733	17267
1.34800	17250
1.34867	17233
1.34933	17216
1.35000	17199
1.35067	17182
1.35133	17166
1.35200	17149
1.35267	17133
1.35333	17117
1.35400	17101
1.35467	17085
1.35533	17070
1.35600	17054
1.35667	17039
1.35733	17024
1.35800	17009
1.35867	16994
1.35933	16979
1.36000	16964
1.36067	16950
1.36133	16935
1.36200	16921
1.36267	16907
1.36333	16893
1.36400	16879
1.36467	16865
1.36533	16852
1.36600	16838
1.36667	16825
1.36733	16812
1.36800	16799
1.36867	16786
1.36933	16773
1.37000	16760
1.37067	16747
1.37133	16735
1.37200	16722
1.37267	16710
1.37333	16697
1.37400	16685
1.37467	16673
1.37533	16661
1.37600	16649
1.37667	16638
1.37733	16626
1.37800	16615
1.37867	16603
1.37933	16592
1.38000	16581
1.38067	16570
1.38133	16559
1.38200	16548
1.38267	16537
1.38333	16526
1.38400	16515
1.38467	16505
1.38533	16494
1.38600	16484
1.38667	16474
1.38733	16464
1.38800	16454
1.38867	16444
1.38933	16434
1.39000	16425
1.39067	16415
1.39133	16406
1.39200	16396
1.39267	16387
1.39333	16377
1.39400	16368
1.39467	16359
1.39533	16350
1.39600	16341
1.39667	16331
1.39733	16322
1.39800	16313
1.39867	16304
1.39933	16295
1.40000	16286
1.40067	16277
1.40133	16268
1.40200	16259
1.40267	16250
1.40333	16241
1.40400	16233
1.40467	16224
1.40533	16215
1.40600	16206
1.40667	16197
1.40733	16188
1.40800	16180
1.40867	16171
1.40933	16162
1.41000	16153
1.41067	16144
1.41133	16136
1.41200	16127
1.41267	16118
1.41333	16110
1.41400	16101
1.41467	16092
1.41533	16084
1.41600	16075
1.41667	16067
1.41733	16058
1.41800	16050
1.41867	16042
1.41933	16033
1.42000	16025
1.42067	16016
1.42133	16008
1.42200	16000
1.42267	15992
1.42333	15983
1.42400	15975
1.42467	15967
1.42533	15959
1.42600	15951
1.42667	15942
1.42733	15934
1.42800	15926
1.42867	15918
1.42933	15910
1.43000	15902
1.43067	15895
1.43133	15887
1.43200	15879
1.43267	15872
1.43333	15864
1.43400	15857
1.43467	15849
1.43533	15842
1.43600	15835
1.43667	15827
1.43733	15820
1.43800	15813
1.43867	15806
1.43933	15799
1.44000	15792
1.44067	15785
1.44133	15779
1.44200	15772
1.44267	15765
1.44333	15759
1.44400	15752
1.44467	15746
1.44533	15740
1.44600	15734
1.44667	15728
1.44733	15722
1.44800	15716
1.44867	15710
1.44933	15705
1.45000	15699
1.45067	15694
1.45133	15689
1.45200	15684
1.45267	15678
1.45333	15673
1.45400	15668
1.45467	15664
1.45533	15659
1.45600	15654
1.45667	15650
1.45733	15645
1.45800	15641
1.45867	15636
1.45933	15632
1.46000	15628
1.46067	15623
1.46133	15619
1.46200	15615
1.46267	15611
1.46333	15606
1.46400	15602
1.46467	15598
1.46533	15594
1.46600	15589
1.46667	15585
1.46733	15580
1.46800	15576
1.46867	15571
1.46933	15567
1.47000	15562
1.47067	15558
1.47133	15553
1.47200	15548
1.47267	15543
1.47333	15538
1.47400	15533
1.47467	15528
1.47533	15522
1.47600	15517
1.47667	15512
1.47733	15506
1.47800	15500
1.47867	15494
1.47933	15489
1.48000	15483
1.48067	15477
1.48133	15471
1.48200	15465
1.48267	15458
1.48333	15452
1.48400	15446
1.48467	15439
1.48533	15433
1.48600	15426
1.48667	15420
1.48733	15413
1.48800	15406
1.48867	15400
1.48933	15393
1.49000	15386
1.49067	15380
1.49133	15373
1.49200	15366
1.49267	15359
1.49333	15352
1.49400	15345
1.49467	15338
1.49533	15330
1.49600	15323
1.49667	15316
1.49733	15309
1.49800	15301
1.49867	15294
1.49933	15287
1.50000	15279
1.50067	15272
1.50133	15265
1.50200	15257
1.50267	15250
1.50333	15243
1.50400	15235
1.50467	15228
1.50533	15221
1.50600	15213
1.50667	15206
1.50733	15199
1.50800	15192
1.50867	15184
1.50933	15177
1.51000	15170
1.51067	15163
1.51133	15156
1.51200	15149
1.51267	15142
1.51333	15135
1.51400	15128
1.51467	15121
1.51533	15114
1.51600	15107
1.51667	15100
1.51733	15093
1.51800	15087
1.51867	15080
1.51933	15073
1.52000	15067
1.52067	15060
1.52133	15053
1.52200	15047
1.52267	15040
1.52333	15034
1.52400	15027
1.52467	15021
1.52533	15014
1.52600	15008
1.52667	15002
1.52733	14996
1.52800	14990
1.52867	14984
1.52933	14979
1.53000	14973
1.53067	14967
1.53133	14962
1.53200	14956
1.53267	14950
1.53333	14945
1.53400	14940
1.53467	14934
1.53533	14929
1.53600	14923
1.53667	14918
1.53733	14912
1.53800	14907
1.53867	14902
1.53933	14896
1.54000	14891
1.54067	14886
1.54133	14881
1.54200	14876
1.54267	14871
1.54333	14865
1.54400	14860
1.54467	14855
1.54533	14850
1.54600	14844
1.54667	14839
1.54733	14834
1.54800	14829
1.54867	14824
1.54933	14818
1.55000	14813
1.55067	14808
1.55133	14803
1.55200	14798
1.55267	14793
1.55333	14788
1.55400	14784
1.55467	14779
1.55533	14774
1.55600	14769
1.55667	14764
1.55733	14759
1.55800	14755
1.55867	14750
1.55933	14745
1.56000	14740
1.56067	14735
1.56133	14731
1.56200	14726
1.56267	14721
1.56333	14716
1.56400	14711
1.56467	14707
1.56533	14702
1.56600	14697
1.56667	14692
1.56733	14687
1.56800	14683
1.56867	14678
1.56933	14673
1.57000	14669
1.57067	14664
1.57133	14659
1.57200	14655
1.57267	14650
1.57333	14645
1.57400	14641
1.57467	14636
1.57533	14631
1.57600	14627
1.57667	14622
1.57733	14617
1.57800	14613
1.57867	14608
1.57933	14603
1.58000	14599
1.58067	14594
1.58133	14589
1.58200	14585
1.58267	14580
1.58333	14575
1.58400	14571
1.58467	14566
1.58533	14561
1.58600	14557
1.58667	14552
1.58733	14548
1.58800	14543
1.58867	14539
1.58933	14534
1.59000	14530
1.59067	14526
1.59133	14521
1.59200	14517
1.59267	14513
1.59333	14509
1.59400	14504
1.59467	14500
1.59533	14496
1.59600	14492
1.59667	14488
1.59733	14483
1.59800	14479
1.59867	14475
1.59933	14471
1.60000	14467
1.60067	14463
1.60133	14459
1.60200	14455
1.60267	14451
1.60333	14447
1.60400	14443
1.60467	14439
1.60533	14435
1.60600	14431
1.60667	14427
1.60733	14423
1.60800	14419
1.60867	14415
1.60933	14411
1.61000	14408
1.61067	14404
1.61133	14400
1.61200	14396
1.61267	14392
1.61333	14388
1.61400	14384
1.61467	14380
1.61533	14376
1.61600	14372
1.61667	14368
1.61733	14364
1.61800	14361
1.61867	14357
1.61933	14353
1.62000	14349
1.62067	14346
1.62133	14342
1.62200	14338
1.62267	14335
1.62333	14331
1.62400	14328
1.62467	14324
1.62533	14321
1.62600	14318
1.62667	14314
1.62733	14311
1.62800	14308
1.62867	14304
1.62933	14301
1.63000	14298
1.63067	14295
1.63133	14292
1.63200	14289
1.63267	14286
1.63333	14283
1.63400	14280
1.63467	14278
1.63533	14275
1.63600	14272
1.63667	14270
1.63733	14267
1.63800	14265
1.63867	14262
1.63933	14260
1.64000	14257
1.64067	14255
1.64133	14252
1.64200	14250
1.64267	14247
1.64333	14245
1.64400	14242
1.64467	14240
1.64533	14238
1.64600	14235
1.64667	14233
1.64733	14230
1.64800	14228
1.64867	14225
1.64933	14223
1.65000	14220
1.65067	14218
1.65133	14215
1.65200	14212
1.65267	14210
1.65333	14207
1.65400	14204
1.65467	14201
1.65533	14199
1.65600	14196
1.65667	14193
1.65733	14191
1.65800	14188
1.65867	14185
1.65933	14183
1.66000	14180
1.66067	14177
1.66133	14175
1.66200	14172
1.66267	14169
1.66333	14167
1.66400	14164
1.66467	14161
1.66533	14159
1.66600	14156
1.66667	14153
1.66733	14150
1.66800	14147
1.66867	14144
1.66933	14142
1.67000	14139
1.67067	14135
1.67133	14132
1.67200	14129
1.67267	14126
1.67333	14123
1.67400	14119
1.67467	14116
1.67533	14112
1.67600	14109
1.67667	14106
1.67733	14102
1.67800	14099
1.67867	14095
1.67933	14092
1.68000	14088
1.68067	14084
1.68133	14081
1.68200	14077
1.68267	14073
1.68333	14069
1.68400	14065
1.68467	14061
1.68533	14057
1.68600	14053
1.68667	14049
1.68733	14044
1.68800	14040
1.68867	14036
1.68933	14031
1.69000	14027
1.69067	14022
1.69133	14017
1.69200	14013
1.69267	14008
1.69333	14003
1.69400	13999
1.69467	13994
1.69533	13989
1.69600	13984
1.69667	13980
1.69733	13975
1.69800	13970
1.69867	13965
1.69933	13960
1.70000	13955
1.70067	13951
1.70133	13946
1.70200	13941
1.70267	13936
1.70333	13932
1.70400	13927
1.70467	13922
1.70533	13917
1.70600	13913
1.70667	13908
1.70733	13903
1.70800	13899
1.70867	13894
1.70933	13889
1.71000	13885
1.71067	13881
1.71133	13876
1.71200	13872
1.71267	13868
1.71333	13864
1.71400	13860
1.71467	13857
1.71533	13853
1.71600	13850
1.71667	13847
1.71733	13845
1.71800	13843
1.71867	13842
1.71933	13842
1.72000	13843
1.72067	13845
1.72133	13849
1.72200	13854
1.72267	13862
1.72333	13873
1.72400	13888
1.72467	13907
1.72533	13931
1.72600	13962
1.72667	14000
1.72733	14047
1.72800	14105
1.72867	14176
1.72933	14262
1.73000	14366
1.73067	14491
1.73133	14639
1.73200	14816
1.73267	15025
1.73333	15271
1.73400	15560
1.73467	15898
1.73533	16292
1.73600	16750
1.73667	17279
1.73733	17890
1.73800	18593
1.73867	19400
1.73933	20321
1.74000	21371
1.74067	22562
1.74133	23907
1.74200	25422
1.74267	27122
1.74333	29027
1.74400	31153
1.74467	33521
1.74533	36149
1.74600	39059
1.74667	42270
1.74733	45803
1.74800	49678
1.74867	53915
1.74933	58536
1.75000	63562
1.75067	69015
1.75133	74919
1.75200	81294
1.75267	88162
1.75333	95542
1.75400	103454
1.75467	111919
1.75533	120959
1.75600	130596
1.75667	140849
1.75733	151737
1.75800	163272
1.75867	175472
1.75933	188349
1.76000	201920
1.76067	216198
1.76133	231192
1.76200	246909
1.76267	263352
1.76333	280524
1.76400	298425
1.76467	317050
1.76533	336390
1.76600	356425
1.76667	377138
1.76733	398502
1.76800	420491
1.76867	443072
1.76933	466207
1.77000	489852
1.77067	513948
1.77133	538433
1.77200	563240
1.77267	588291
1.77333	613502
1.77400	638787
1.77467	664056
1.77533	689222
1.77600	714194
1.77667	738871
1.77733	763146
1.77800	786905
1.77867	810032
1.77933	832413
1.78000	853934
1.78067	874486
1.78133	893966
1.78200	912282
1.78267	929349
1.78333	945103
1.78400	959490
1.78467	972470
1.78533	984013
1.78600	994106
1.78667	1002743
1.78733	1009937
1.78800	1015705
1.78867	1020078
1.78933	1023093
1.79000	1024795
1.79067	1025234
1.79133	1024463
1.79200	1022541
1.79267	1019527
1.79333	1015483
1.79400	1010471
1.79467	1004551
1.79533	997786
1.79600	990234
1.79667	981953
1.79733	973001
1.79800	963432
1.79867	953297
1.79933	942648
1.80000	931532
1.80067	919995
1.80133	908082
1.80200	895832
1.80267	883285
1.80333	870479
1.80400	857447
1.80467	844223
1.80533	830837
1.80600	817319
1.80667	803695
1.80733	789992
1.80800	776232
1.80867	762438
1.80933	748630
1.81000	734828
1.81067	721051
1.81133	707313
1.81200	693632
1.81267	680021
1.81333	666493
1.81400	653061
1.81467	639735
1.81533	626526
1.81600	613443
1.81667	600494
1.81733	587688
1.81800	575032
1.81867	562530
1.81933	550190
1.82000	538016
1.82067	526013
1.82133	514184
1.82200	502534
1.82267	491064
1.82333	479778
1.82400	468677
1.82467	457764
1.82533	447039
1.82600	436503
1.82667	426157
1.82733	416002
1.82800	406036
1.82867	396261
1.82933	386675
1.83000	377279
1.83067	368070
1.83133	359048
1.83200	350212
1.83267	341560
1.83333	333091
1.83400	324803
1.83467	316695
1.83533	308763
1.83600	301007
1.83667	293424
1.83733	286012
1.83800	278769
1.83867	271692
1.83933	264779
1.84000	258027
1.84067	251434
1.84133	244998
1.84200	238715
1.84267	232584
1.84333	226601
1.84400	220765
1.84467	215072
1.84533	209520
1.84600	204106
1.84667	198828
1.84733	193683
1.84800	188668
1.84867	183781
1.84933	179019
1.85000	174380
1.85067	169861
1.85133	165459
1.85200	161173
1.85267	156999
1.85333	152935
1.85400	148979
1.85467	145128
1.85533	141380
1.85600	137733
1.85667	134185
1.85733	130732
1.85800	127373
1.85867	124105
1.85933	120927
1.86000	117837
1.86067	114831
1.86133	111908
1.86200	109067
1.86267	106304
1.86333	103619
1.86400	101009
1.86467	98472
1.86533	96006
1.86600	93610
1.86667	91282
1.86733	89020
1.86800	86821
1.86867	84686
1.86933	82611
1.87000	80595
1.87067	78637
1.87133	76735
1.87200	74888
1.87267	73093
1.87333	71351
1.87400	69658
1.87467	68014
1.87533	66418
1.87600	64868
1.87667	63362
1.87733	61901
1.87800	60481
1.87867	59103
1.87933	57765
1.88000	56466
1.88067	55205
1.88133	53980
1.88200	52791
1.88267	51637
1.88333	50517
1.88400	49430
1.88467	48375
1.88533	47351
1.88600	46357
1.88667	45392
1.88733	44456
1.88800	43548
1.88867	42667
1.88933	41811
1.89000	40982
1.89067	40177
1.89133	39396
1.89200	38639
1.89267	37904
1.89333	37191
1.89400	36500
1.89467	35829
1.89533	35179
1.89600	34549
1.89667	33937
1.89733	33344
1.89800	32769
1.89867	32212
1.89933	31672
1.90000	31148
1.90067	30640
1.90133	30147
1.90200	29670
1.90267	29208
1.90333	28759
1.90400	28325
1.90467	27904
1.90533	27495
1.90600	27099
1.90667	26716
1.90733	26344
1.90800	25983
1.90867	25634
1.90933	25295
1.91000	24967
1.91067	24649
1.91133	24340
1.91200	24041
1.91267	23751
1.91333	23470
1.91400	23198
1.91467	22933
1.91533	22677
1.91600	22429
1.91667	22188
1.91733	21954
1.91800	21728
1.91867	21508
1.91933	21295
1.92000	21088
1.92067	20888
1.92133	20694
1.92200	20505
1.92267	20323
1.92333	20145
1.92400	19973
1.92467	19806
1.92533	19644
1.92600	19487
1.92667	19335
1.92733	19187
1.92800	19043
1.92867	18904
1.92933	18769
1.93000	18638
1.93067	18510
1.93133	18387
1.93200	18267
1.93267	18150
1.93333	18037
1.93400	17927
1.93467	17820
1.93533	17715
1.93600	17614
1.93667	17516
1.93733	17420
1.93800	17327
1.93867	17236
1.93933	17148
1.94000	17062
1.94067	16978
1.94133	16896
1.94200	16817
1.94267	16739
1.94333	16664
1.94400	16591
1.94467	16519
1.94533	16449
1.94600	16381
1.94667	16315
1.94733	16250
1.94800	16187
1.94867	16125
1.94933	16065
1.95000	16006
1.95067	15949
1.95133	15893
1.95200	15838
1.95267	15785
1.95333	15733
1.95400	15683
1.95467	15633
1.95533	15585
1.95600	15538
1.95667	15492
1.95733	15447
1.95800	15403
1.95867	15359
1.95933	15317
1.96000	15276
1.96067	15236
1.96133	15197
1.96200	15158
1.96267	15120
1.96333	15083
1.96400	15047
1.96467	15012
1.96533	14977
1.96600	14943
1.96667	14910
1.96733	14877
1.96800	14846
1.96867	14814
1.96933	14784
1.97000	14754
1.97067	14725
1.97133	14696
1.97200	14668
1.97267	14640
1.97333	14613
1.97400	14586
1.97467	14560
1.97533	14534
1.97600	14509
1.97667	14484
1.97733	14459
1.97800	14435
1.97867	14412
1.97933	14389
1.98000	14366
1.98067	14343
1.98133	14322
1.98200	14300
1.98267	14279
1.98333	14258
1.98400	14237
1.98467	14217
1.98533	14197
1.98600	14177
1.98667	14158
1.98733	14139
1.98800	14120
1.98867	14101
1.98933	14083
1.99000	14065
1.99067	14048
1.99133	14030
1.99200	14013
1.99267	13997
1.99333	13980
1.99400	13964
1.99467	13948
1.99533	13933
1.99600	13917
1.99667	13902
1.99733	13887
1.99800	13872
1.99867	13858
1.99933	13843
2.00000	13829
2.00067	13815
2.00133	13801
2.00200	13787
2.00267	13773
2.00333	13760
2.00400	13746
2.00467	13733
2.00533	13720
2.00600	13707
2.00667	13694
2.00733	13681
2.00800	13668
2.00867	13655
2.00933	13643
2.01000	13630
2.01067	13618
2.01133	13605
2.01200	13593
2.01267	13581
2.01333	13569
2.01400	13557
2.01467	13545
2.01533	13534
2.01600	13522
2.01667	13511
2.01733	13499
2.01800	13488
2.01867	13477
2.01933	13466
2.02000	13455
2.02067	13444
2.02133	13434
2.02200	13423
2.02267	13413
2.02333	13402
2.02400	13392
2.02467	13382
2.02533	13371
2.02600	13361
2.02667	13351
2.02733	13341
2.02800	13331
2.02867	13322
2.02933	13312
2.03000	13302
2.03067	13292
2.03133	13283
2.03200	13273
2.03267	13263
2.03333	13254
2.03400	13245
2.03467	13235
2.03533	13226
2.03600	13216
2.03667	13207
2.03733	13198
2.03800	13188
2.03867	13179
2.03933	13170
2.04000	13161
2.04067	13152
2.04133	13143
2.04200	13134
2.04267	13125
2.04333	13116
2.04400	13107
2.04467	13099
2.04533	13090
2.04600	13081
2.04667	13072
2.04733	13064
2.04800	13055
2.04867	13047
2.04933	13038
2.05000	13030
2.05067	13021
2.05133	13013
2.05200	13005
2.05267	12997
2.05333	12989
2.05400	12982
2.05467	12974
2.05533	12966
2.05600	12959
2.05667	12951
2.05733	12944
2.05800	12936
2.05867	12929
2.05933	12922
2.06000	12914
2.06067	12907
2.06133	12900
2.06200	12893
2.06267	12885
2.06333	12878
2.06400	12871
2.06467	12864
2.06533	12857
2.06600	12850
2.06667	12843
2.06733	12836
2.06800	12829
2.06867	12822
2.06933	12815
2.07000	12808
2.07067	12801
2.07133	12794
2.07200	12787
2.07267	12780
2.07333	12773
2.07400	12766
2.07467	12759
2.07533	12752
2.07600	12746
2.07667	12739
2.07733	12732
2.07800	12725
2.07867	12718
2.07933	12711
2.08000	12705
2.08067	12698
2.08133	12691
2.08200	12684
2.08267	12678
2.08333	12671
2.08400	12664
2.08467	12657
2.08533	12651
2.08600	12644
2.08667	12637
2.08733	12630
2.08800	12624
2.08867	12617
2.08933	12610
2.09000	12604
2.09067	12597
2.09133	12591
2.09200	12584
2.09267	12578
2.09333	12571
2.09400	12565
2.09467	12558
2.09533	12552
2.09600	12545
2.09667	12539
2.09733	12532
2.09800	12526
2.09867	12520
2.09933	12513
2.10000	12507
2.10067	12501
2.10133	12495
2.10200	12488
2.10267	12482
2.10333	12476
2.10400	12470
2.10467	12464
2.10533	12458
2.10600	12452
2.10667	12446
2.10733	12440
2.10800	12434
2.10867	12428
2.10933	12422
2.11000	12416
2.11067	12411
2.11133	12405
2.11200	12399
2.11267	12393
2.11333	12388
2.11400	12382
2.11467	12376
2.11533	12370
2.11600	12365
2.11667	12359
2.11733	12353
2.11800	12348
2.11867	12342
2.11933	12336
2.12000	12331
2.12067	12325
2.12133	12319
2.12200	12314
2.12267	12308
2.12333	12302
2.12400	12297
2.12467	12291
2.12533	12285
2.12600	12280
2.12667	12274
2.12733	12268
2.12800	12262
2.12867	12257
2.12933	12251
2.13000	12245
2.13067	12239
2.13133	12233
2.13200	12227
2.13267	12222
2.13333	12216
2.13400	12210
2.13467	12204
2.13533	12198
2.13600	12193
2.13667	12187
2.13733	12181
2.13800	12175
2.13867	12169
2.13933	12163
2.14000	12158
2.14067	12152
2.14133	12146
2.14200	12140
2.14267	12135
2.14333	12129
2.14400	12123
2.14467	12118
2.14533	12112
2.14600	12106
2.14667	12101
2.14733	12095
2.14800	12089
2.14867	12084
2.14933	12078
2.15000	12072
2.15067	12067
2.15133	12061
2.15200	12055
2.15267	12050
2.15333	12044
2.15400	12039
2.15467	12033
2.15533	12027
2.15600	12022
2.15667	12016
2.15733	12011
2.15800	12005
2.15867	12000
2.15933	11994
2.16000	11989
2.16067	11983
2.16133	11978
2.16200	11972
2.16267	11967
2.16333	11961
2.16400	11956
2.16467	11951
2.16533	11945
2.16600	11940
2.16667	11934
2.16733	11929
2.16800	11924
2.16867	11918
2.16933	11913
2.17000	11908
2.17067	11902
2.17133	11897
2.17200	11891
2.17267	11886
2.17333	11881
2.17400	11876
2.17467	11870
2.17533	11865
2.17600	11860
2.17667	11855
2.17733	11850
2.17800	11845
2.17867	11839
2.17933	11834
2.18000	11829
2.18067	11824
2.18133	11819
2.18200	11814
2.18267	11809
2.18333	11805
2.18400	11800
2.18467	11795
2.18533	11790
2.18600	11785
2.18667	11780
2.18733	11775
2.18800	11771
2.18867	11766
2.18933	11761
2.19000	11756
2.19067	11752
2.19133	11747
2.19200	11742
2.19267	11738
2.19333	11733
2.19400	11729
2.19467	11724
2.19533	11720
2.19600	11715
2.19667	11711
2.19733	11707
2.19800	11702
2.19867	11698
2.19933	11694
2.20000	11690
2.20067	11686
2.20133	11681
2.20200	11677
2.20267	11673
2.20333	11669
2.20400	11665
2.20467	11661
2.20533	11657
2.20600	11653
2.20667	11649
2.20733	11646
2.20800	11642
2.20867	11638
2.20933	11634
2.21000	11631
2.21067	11627
2.21133	11624
2.21200	11620
2.21267	11617
2.21333	11613
2.21400	11610
2.21467	11606
2.21533	11603
2.21600	11599
2.21667	11596
2.21733	11592
2.21800	11589
2.21867	11586
2.21933	11583
2.22000	11579
2.22067	11576
2.22133	11573
2.22200	11570
2.22267	11567
2.22333	11564
2.22400	11561
2.22467	11558
2.22533	11555
2.22600	11552
2.22667	11549
2.22733	11546
2.22800	11543
2.22867	11540
2.22933	11537
2.23000	11534
2.23067	11531
2.23133	11528
2.23200	11525
2.23267	11522
2.23333	11519
2.23400	11515
2.23467	11512
2.23533	11509
2.23600	11506
2.23667	11503
2.23733	11500
2.23800	11497
2.23867	11494
2.23933	11491
2.24000	11488
2.24067	11484
2.24133	11481
2.24200	11478
2.24267	11475
2.24333	11472
2.24400	11469
2.24467	11466
2.24533	11463
2.24600	11460
2.24667	11457
2.24733	11454
2.24800	11451
2.24867	11447
2.24933	11444
2.25000	11441
2.25067	11438
2.25133	11435
2.25200	11431
2.25267	11428
2.25333	11425
2.25400	11421
2.25467	11418
2.25533	11415
2.25600	11411
2.25667	11408
2.25733	11405
2.25800	11401
2.25867	11398
2.25933	11394
2.26000	11391
2.26067	11388
2.26133	11384
2.26200	11381
2.26267	11378
2.26333	11374
2.26400	11371
2.26467	11368
2.26533	11365
2.26600	11361
2.26667	11358
2.26733	11355
2.26800	11351
2.26867	11348
2.26933	11344
2.27000	11341
2.27067	11337
2.27133	11334
2.27200	11330
2.27267	11327
2.27333	11323
2.27400	11320
2.27467	11316
2.27533	11312
2.27600	11309
2.27667	11305
2.27733	11302
2.27800	11298
2.27867	11294
2.27933	11291
2.28000	11287
2.28067	11284
2.28133	11280
2.28200	11277
2.28267	11274
2.28333	11270
2.28400	11267
2.28467	11264
2.28533	11260
2.28600	11257
2.28667	11254
2.28733	11251
2.28800	11248
2.28867	11245
2.28933	11242
2.29000	11239
2.29067	11235
2.29133	11232
2.29200	11229
2.29267	11226
2.29333	11223
2.29400	11220
2.29467	11217
2.29533	11213
2.29600	11210
2.29667	11207
2.29733	11204
2.29800	11201
2.29867	11198
2.29933	11195
2.30000	11192
2.30067	11189
2.30133	11185
2.30200	11182
2.30267	11179
2.30333	11176
2.30400	11173
2.30467	11170
2.30533	11167
2.30600	11165
2.30667	11162
2.30733	11159
2.30800	11156
2.30867	11153
2.30933	11150
2.31000	11147
2.31067	11144
2.31133	11141
2.31200	11138
2.31267	11135
2.31333	11133
2.31400	11130
2.31467	11127
2.31533	11124
2.31600	11122
2.31667	11119
2.31733	11116
2.31800	11114
2.31867	11111
2.31933	11109
2.32000	11106
2.32067	11104
2.32133	11101
2.32200	11099
2.32267	11096
2.32333	11094
2.32400	11092
2.32467	11089
2.32533	11087
2.32600	11085
2.32667	11083
2.32733	11080
2.32800	11078
2.32867	11076
2.32933	11074
2.33000	11071
2.33067	11069
2.33133	11067
2.33200	11065
2.33267	11063
2.33333	11061
2.33400	11059
2.33467	11057
2.33533	11055
2.33600	11052
2.33667	11050
2.33733	11048
2.33800	11046
2.33867	11044
2.33933	11042
2.34000	11040
2.34067	11038
2.34133	11036
2.34200	11035
2.34267	11033
2.34333	11031
2.34400	11029
2.34467	11028
2.34533	11026
2.34600	11025
2.34667	11024
2.34733	11022
2.34800	11021
2.34867	11020
2.34933	11018
2.35000	11017
2.35067	11016
2.35133	11015
2.35200	11014
2.35267	11013
2.35333	11012
2.35400	11011
2.35467	11010
2.35533	11009
2.35600	11008
2.35667	11007
2.35733	11006
2.35800	11005
2.35867	11004
2.35933	11004
2.36000	11003
2.36067	11002
2.36133	11001
2.36200	11000
2.36267	11000
2.36333	10999
2.36400	10998
2.36467	10997
2.36533	10996
2.36600	10996
2.36667	10995
2.36733	10994
2.36800	10994
2.36867	10993
2.36933	10992
2.37000	10991
2.37067	10990
2.37133	10989
2.37200	10988
2.37267	10987
2.37333	10985
2.37400	10984
2.37467	10982
2.37533	10981
2.37600	10979
2.37667	10977
2.37733	10976
2.37800	10974
2.37867	10972
2.37933	10970
2.38000	10968
2.38067	10965
2.38133	10963
2.38200	10961
2.38267	10958
2.38333	10956
2.38400	10953
2.38467	10951
2.38533	10948
2.38600	10945
2.38667	10943
2.38733	10940
2.38800	10937
2.38867	10934
2.38933	10931
2.39000	10928
2.39067	10925
2.39133	10922
2.39200	10919
2.39267	10916
2.39333	10913
2.39400	10910
2.39467	10906
2.39533	10903
2.39600	10900
2.39667	10896
2.39733	10893
2.39800	10890
2.39867	10886
2.39933	10883
2.40000	10879
2.40067	10876
2.40133	10872
2.40200	10869
2.40267	10865
2.40333	10862
2.40400	10858
2.40467	10855
2.40533	10851
2.40600	10848
2.40667	10844
2.40733	10841
2.40800	10837
2.40867	10834
2.40933	10830
2.41000	10827
2.41067	10823
2.41133	10820
2.41200	10816
2.41267	10813
2.41333	10810
2.41400	10806
2.41467	10803
2.41533	10800
2.41600	10797
2.41667	10794
2.41733	10791
2.41800	10788
2.41867	10784
2.41933	10781
2.42000	10778
2.42067	10775
2.42133	10772
2.42200	10769
2.42267	10766
2.42333	10763
2.42400	10760
2.42467	10757
2.42533	10754
2.42600	10751
2.42667	10748
2.42733	10745
2.42800	10742
2.42867	10739
2.42933	10736
2.43000	10733
2.43067	10730
2.43133	10727
2.43200	10724
2.43267	10721
2.43333	10718
2.43400	10715
2.43467	10711
2.43533	10708
2.43600	10705
2.43667	10702
2.43733	10698
2.43800	10695
2.43867	10692
2.43933	10688
2.44000	10685
2.44067	10681
2.44133	10678
2.44200	10674
2.44267	10671
2.44333	10667
2.44400	10663
2.44467	10659
2.44533	10656
2.44600	10652
2.44667	10648
2.44733	10644
2.44800	10640
2.44867	10636
2.44933	10633
2.45000	10629
2.45067	10625
2.45133	10621
2.45200	10617
2.45267	10613
2.45333	10609
2.45400	10605
2.45467	10601
2.45533	10597
2.45600	10593
2.45667	10588
2.45733	10584
2.45800	10580
2.45867	10576
2.45933	10572
2.46000	10568
2.46067	10563
2.46133	10559
2.46200	10555
2.46267	10551
2.46333	10547
2.46400	10543
2.46467	10538
2.46533	10534
2.46600	10530
2.46667	10526
2.46733	10522
2.46800	10518
2.46867	10514
2.46933	10510
2.47000	10506
2.47067	10502
2.47133	10498
2.47200	10494
2.47267	10490
2.47333	10486
2.47400	10482
2.47467	10477
2.47533	10473
2.47600	10469
2.47667	10465
2.47733	10461
2.47800	10457
2.47867	10452
2.47933	10448
2.48000	10444
2.48067	10440
2.48133	10436
2.48200	10431
2.48267	10427
2.48333	10423
2.48400	10419
2.48467	10415
2.48533	10411
2.48600	10407
2.48667	10403
2.48733	10399
2.48800	10395
2.48867	10391
2.48933	10387
2.49000	10383
2.49067	10379
2.49133	10375
2.49200	10370
2.49267	10366
2.49333	10362
2.49400	10358
2.49467	10354
2.49533	10350
2.49600	10346
2.49667	10341
2.49733	10337
2.49800	10333
2.49867	10329
2.49933	10324
2.50000	10320
2.50067	10316
2.50133	10312
2.50200	10308
2.50267	10304
2.50333	10300
2.50400	10296
2.50467	10292
2.50533	10288
2.50600	10284
2.50667	10280
2.50733	10276
2.50800	10272
2.50867	10268
2.50933	10264
2.51000	10260
2.51067	10256
2.51133	10252
2.51200	10248
2.51267	10244
2.51333	10240
2.51400	10236
2.51467	10232
2.51533	10228
2.51600	10224
2.51667	10220
2.51733	10215
2.51800	10211
2.51867	10207
2.51933	10203
2.52000	10199
2.52067	10195
2.52133	10190
2.52200	10186
2.52267	10182
2.52333	10178
2.52400	10174
2.52467	10170
2.52533	10166
2.52600	10162
2.52667	10157
2.52733	10153
2.52800	10149
2.52867	10145
2.52933	10141
2.53000	10137
2.53067	10133
2.53133	10128
2.53200	10124
2.53267	10120
2.53333	10116
2.53400	10112
2.53467	10108
2.53533	10104
2.53600	10100
2.53667	10096
2.53733	10091
2.53800	10087
2.53867	10083
2.53933	10079
2.54000	10075
2.54067	10071
2.54133	10067
2.54200	10063
2.54267	10058
2.54333	10054
2.54400	10050
2.54467	10046
2.54533	10042
2.54600	10038
2.54667	10034
2.54733	10030
2.54800	10026
2.54867	10022
2.54933	10018
2.55000	10015
2.55067	10011
2.55133	10007
2.55200	10003
2.55267	10000
2.55333	9996
2.55400	9993
2.55467	9989
2.55533	9986
2.55600	9982
2.55667	9978
2.55733	9975
2.55800	9971
2.55867	9968
2.55933	9964
2.56000	9960
2.56067	9957
2.56133	9953
2.56200	9950
2.56267	9946
2.56333	9943
2.56400	9939
2.56467	9936
2.56533	9932
2.56600	9929
2.56667	9925
2.56733	9922
2.56800	9918
2.56867	9915
2.56933	9912
2.57000	9908
2.57067	9905
2.57133	9902
2.57200	9899
2.57267	9896
2.57333	9892
2.57400	9889
2.57467	9886
2.57533	9883
2.57600	9880
2.57667	9877
2.57733	9874
2.57800	9871
2.57867	9868
2.57933	9865
2.58000	9862
2.58067	9859
2.58133	9856
2.58200	9853
2.58267	9850
2.58333	9847
2.58400	9844
2.58467	9841
2.58533	9838
2.58600	9835
2.58667	9832
2.58733	9829
2.58800	9826
2.58867	9823
2.58933	9820
2.59000	9817
2.59067	9814
2.59133	9811
2.59200	9808
2.59267	9806
2.59333	9803
2.59400	9800
2.59467	9797
2.59533	9795
2.59600	9792
2.59667	9789
2.59733	9787
2.59800	9784
2.59867	9781
2.59933	9779
2.60000	9776
2.60067	9774
2.60133	9771
2.60200	9768
2.60267	9766
2.60333	9763
2.60400	9760
2.60467	9758
2.60533	9755
2.60600	9752
2.60667	9750
2.60733	9747
2.60800	9744
2.60867	9742
2.60933	9739
2.61000	9736
2.61067	9733
2.61133	9731
2.61200	9728
2.61267	9725
2.61333	9723
2.61400	9720
2.61467	9717
2.61533	9715
2.61600	9712
2.61667	9709
2.61733	9707
2.61800	9704
2.61867	9701
2.61933	9698
2.62000	9696
2.62067	9693
2.62133	9690
2.62200	9688
2.62267	9685
2.62333	9682
2.62400	9680
2.62467	9677
2.62533	9674
2.62600	9671
2.62667	9669
2.62733	9666
2.62800	9663
2.62867	9660
2.62933	9658
2.63000	9655
2.63067	9652
2.63133	9649
2.63200	9646
2.63267	9643
2.63333	9640
2.63400	9637
2.63467	9634
2.63533	9631
2.63600	9628
2.63667	9625
2.63733	9622
2.63800	9619
2.63867	9616
2.63933	9613
2.64000	9610
2.64067	9607
2.64133	9604
2.64200	9601
2.64267	9598
2.64333	9595
2.64400	9592
2.64467	9589
2.64533	9587
2.64600	9584
2.64667	9581
2.64733	9578
2.64800	9575
2.64867	9572
2.64933	9570
2.65000	9567
2.65067	9564
2.65133	9561
2.65200	9558
2.65267	9555
2.65333	9553
2.65400	9550
2.65467	9547
2.65533	9544
2.65600	9541
2.65667	9538
2.65733	9535
2.65800	9532
2.65867	9529
2.65933	9526
2.66000	9523
2.66067	9520
2.66133	9516
2.66200	9513
2.66267	9510
2.66333	9507
2.66400	9504
2.66467	9501
2.66533	9497
2.66600	9494
2.66667	9491
2.66733	9488
2.66800	9485
2.66867	9481
2.66933	9478
2.67000	9475
2.67067	9472
2.67133	9469
2.67200	9466
2.67267	9462
2.67333	9459
2.67400	9456
2.67467	9453
2.67533	9450
2.67600	9447
2.67667	9444
2.67733	9442
2.67800	9439
2.67867	9436
2.67933	9433
2.68000	9430
2.68067	9427
2.68133	9425
2.68200	9422
2.68267	9419
2.68333	9416
2.68400	9414
2.68467	9411
2.68533	9408
2.68600	9405
2.68667	9402
2.68733	9399
2.68800	9397
2.68867	9394
2.68933	9391
2.69000	9388
2.69067	9385
2.69133	9382
2.69200	9379
2.69267	9377
2.69333	9374
2.69400	9371
2.69467	9368
2.69533	9365
2.69600	9362
2.69667	9360
2.69733	9357
2.69800	9354
2.69867	9351
2.69933	9349
2.70000	9346
2.70067	9343
2.70133	9341
2.70200	9338
2.70267	9335
2.70333	9333
2.70400	9330
2.70467	9327
2.70533	9325
2.70600	9322
2.70667	9320
2.70733	9317
2.70800	9315
2.70867	9312
2.70933	9309
2.71000	9307
2.71067	9304
2.71133	9302
2.71200	9299
2.71267	9297
2.71333	9294
2.71400	9292
2.71467	9289
2.71533	9287
2.71600	9284
2.71667	9282
2.71733	9279
2.71800	9277
2.71867	9274
2.71933	9272
2.72000	9270
2.72067	9267
2.72133	9265
2.72200	9262
2.72267	9260
2.72333	9258
2.72400	9255
2.72467	9253
2.72533	9250
2.72600	9248
2.72667	9246
2.72733	9243
2.72800	9241
2.72867	9238
2.72933	9236
2.73000	9233
2.73067	9231
2.73133	9229
2.73200	9226
2.73267	9224
2.73333	9222
2.73400	9220
2.73467	9217
2.73533	9215
2.73600	9213
2.73667	9211
2.73733	9208
2.73800	9206
2.73867	9204
2.73933	9202
2.74000	9200
2.74067	9197
2.74133	9195
2.74200	9193
2.74267	9191
2.74333	9189
2.74400	9186
2.74467	9184
2.74533	9182
2.74600	9180
2.74667	9178
2.74733	9176
2.74800	9174
2.74867	9172
2.74933	9169
2.75000	9167
2.75067	9165
2.75133	9163
2.75200	9161
2.75267	9159
2.75333	9157
2.75400	9155
2.75467	9153
2.75533	9151
2.75600	9149
2.75667	9147
2.75733	9145
2.75800	9143
2.75867	9141
2.75933	9139
2.76000	9137
2.76067	9135
2.76133	9134
2.76200	9132
2.76267	9130
2.76333	9128
2.76400	9126
2.76467	9124
2.76533	9123
2.76600	9121
2.76667	9119
2.76733	9118
2.76800	9116
2.76867	9114
2.76933	9113
2.77000	9112
2.77067	9110
2.77133	9109
2.77200	9108
2.77267	9106
2.77333	9105
2.77400	9104
2.77467	9103
2.77533	9102
2.77600	9100
2.77667	9099
2.77733	9098
2.77800	9097
2.77867	9096
2.77933	9095
2.78000	9094
2.78067	9093
2.78133	9092
2.78200	9091
2.78267	9091
2.78333	9090
2.78400	9089
2.78467	9088
2.78533	9087
2.78600	9087
2.78667	9086
2.78733	9085
2.78800	9085
2.78867	9084
2.78933	9083
2.79000	9083
2.79067	9082
2.79133	9082
2.79200	9081
2.79267	9081
2.79333	9080
2.79400	9080
2.79467	9079
2.79533	9079
2.79600	9078
2.79667	9078
2.79733	9077
2.79800	9077
2.79867	9077
2.79933	9076
2.80000	9076
2.80067	9075
2.80133	9075
2.80200	9074
2.80267	9074
2.80333	9073
2.80400	9073
2.80467	9072
2.80533	9072
2.80600	9071
2.80667	9071
2.80733	9070
2.80800	9069
2.80867	9069
2.80933	9068
2.81000	9067
2.81067	9066
2.81133	9066
2.81200	9065
2.81267	9064
2.81333	9063
2.81400	9062
2.81467	9061
2.81533	9060
2.81600	9059
2.81667	9058
2.81733	9057
2.81800	9055
2.81867	9054
2.81933	9053
2.82000	9052
2.82067	9050
2.82133	9049
2.82200	9047
2.82267	9046
2.82333	9044
2.82400	9043
2.82467	9041
2.82533	9040
2.82600	9038
2.82667	9036
2.82733	9035
2.82800	9033
2.82867	9031
2.82933	9030
2.83000	9028
2.83067	9026
2.83133	9025
2.83200	9023
2.83267	9022
2.83333	9020
2.83400	9018
2.83467	9017
2.83533	9015
2.83600	9014
2.83667	9012
2.83733	9010
2.83800	9009
2.83867	9007
2.83933	9005
2.84000	9004
2.84067	9002
2.84133	9001
2.84200	8999
2.84267	8997
2.84333	8996
2.84400	8994
2.84467	8993
2.84533	8991
2.84600	8989
2.84667	8988
2.84733	8986
2.84800	8985
2.84867	8983
2.84933	8982
2.85000	8980
2.85067	8979
2.85133	8977
2.85200	8976
2.85267	8975
2.85333	8973
2.85400	8972
2.85467	8970
2.85533	8969
2.85600	8968
2.85667	8966
2.85733	8965
2.85800	8964
2.85867	8963
2.85933	8962
2.86000	8960
2.86067	8959
2.86133	8958
2.86200	8957
2.86267	8956
2.86333	8955
2.86400	8954
2.86467	8954
2.86533	8953
2.86600	8952
2.86667	8952
2.86733	8951
2.86800	8950
2.86867	8950
2.86933	8949
2.87000	8949
2.87067	8948
2.87133	8948
2.87200	8948
2.87267	8947
2.87333	8947
2.87400	8947
2.87467	8947
2.87533	8946
2.87600	8946
2.87667	8946
2.87733	8946
2.87800	8946
2.87867	8946
2.87933	8946
2.88000	8946
2.88067	8946
2.88133	8947
2.88200	8947
2.88267	8948
2.88333	8948
2.88400	8949
2.88467	8949
2.88533	8950
2.88600	8951
2.88667	8952
2.88733	8953
2.88800	8955
2.88867	8956
2.88933	8958
2.89000	8959
2.89067	8961
2.89133	8963
2.89200	8965
2.89267	8967
2.89333	8969
2.89400	8972
2.89467	8974
2.89533	8976
2.89600	8979
2.89667	8981
2.89733	8984
2.89800	8987
2.89867	8990
2.89933	8993
2.90000	8996
2.90067	8999
2.90133	9002
2.90200	9005
2.90267	9008
2.90333	9011
2.90400	9014
2.90467	9018
2.90533	9021
2.90600	9024
2.90667	9027
2.90733	9031
2.90800	9034
2.90867	9037
2.90933	9040
2.91000	9043
2.91067	9046
2.91133	9049
2.91200	9052
2.91267	9055
2.91333	9057
2.91400	9059
2.91467	9062
2.91533	9064
2.91600	9065
2.91667	9067
2.91733	9068
2.91800	9070
2.91867	9071
2.91933	9071
2.92000	9072
2.92067	9072
2.92133	9072
2.92200	9072
2.92267	9071
2.92333	9070
2.92400	9069
2.92467	9068
2.92533	9066
2.92600	9064
2.92667	9062
2.92733	9060
2.92800	9057
2.92867	9055
2.92933	9051
2.93000	9048
2.93067	9044
2.93133	9040
2.93200	9036
2.93267	9032
2.93333	9027
2.93400	9022
2.93467	9017
2.93533	9012
2.93600	9007
2.93667	9001
2.93733	8995
2.93800	8989
2.93867	8983
2.93933	8977
2.94000	8970
2.94067	8964
2.94133	8957
2.94200	8950
2.94267	8943
2.94333	8935
2.94400	8928
2.94467	8920
2.94533	8913
2.94600	8905
2.94667	8897
2.94733	8889
2.94800	8881
2.94867	8873
2.94933	8865
2.95000	8857
2.95067	8849
2.95133	8841
2.95200	8832
2.95267	8824
2.95333	8816
2.95400	8808
2.95467	8799
2.95533	8791
2.95600	8783
2.95667	8775
2.95733	8767
2.95800	8759
2.95867	8751
2.95933	8743
2.96000	8735
2.96067	8727
2.96133	8719
2.96200	8711
2.96267	8703
2.96333	8696
2.96400	8688
2.96467	8680
2.96533	8673
2.96600	8666
2.96667	8658
2.96733	8651
2.96800	8644
2.96867	8637
2.96933	8630
2.97000	8623
2.97067	8616
2.97133	8609
2.97200	8603
2.97267	8596
2.97333	8589
2.97400	8583
2.97467	8577
2.97533	8570
2.97600	8564
2.97667	8558
2.97733	8552
2.97800	8546
2.97867	8540
2.97933	8534
2.98000	8528
2.98067	8522
2.98133	8517
2.98200	8511
2.98267	8506
2.98333	8500
2.98400	8495
2.98467	8490
2.98533	8485
2.98600	8479
2.98667	8474
2.98733	8469
2.98800	8464
2.98867	8460
2.98933	8455
2.99000	8450
2.99067	8445
2.99133	8441
2.99200	8436
2.99267	8431
2.99333	8427
2.99400	8422
2.99467	8418
2.99533	8414
2.99600	8409
2.99667	8405
2.99733	8401
2.99800	8397
2.99867	8392
2.99933	8388
3.00000	8384
3.00067	8380
3.00133	8376
3.00200	8372
3.00267	8368
3.00333	8364
3.00400	8361
3.00467	8357
3.00533	8353
3.00600	8350
3.00667	8346
3.00733	8342
3.00800	8339
3.00867	8335
3.00933	8332
3.01000	8328
3.01067	8325
3.01133	8321
3.01200	8318
3.01267	8315
3.01333	8311
3.01400	8308
3.01467	8305
3.01533	8302
3.01600	8298
3.01667	8295
3.01733	8292
3.01800	8289
3.01867	8286
3.01933	8283
3.02000	8280
3.02067	8277
3.02133	8275
3.02200	8272
3.02267	8269
3.02333	8266
3.02400	8263
3.02467	8260
3.02533	8258
3.02600	8255
3.02667	8252
3.02733	8249
3.02800	8247
3.02867	8244
3.02933	8242
3.03000	8239
3.03067	8237
3.03133	8234
3.03200	8232
3.03267	8229
3.03333	8227
3.03400	8224
3.03467	8222
3.03533	8220
3.03600	8217
3.03667	8215
3.03733	8213
3.03800	8211
3.03867	8208
3.03933	8206
3.04000	8204
3.04067	8202
3.04133	8200
3.04200	8197
3.04267	8195
3.04333	8193
3.04400	8191
3.04467	8189
3.04533	8187
3.04600	8185
3.04667	8183
3.04733	8181
3.04800	8179
3.04867	8177
3.04933	8175
3.05000	8173
3.05067	8171
3.05133	8169
3.05200	8167
3.05267	8165
3.05333	8164
3.05400	8162
3.05467	8160
3.05533	8158
3.05600	8156
3.05667	8155
3.05733	8153
3.05800	8151
3.05867	8150
3.05933	8148
3.06000	8147
3.06067	8145
3.06133	8144
3.06200	8142
3.06267	8141
3.06333	8140
3.06400	8138
3.06467	8137
3.06533	8136
3.06600	8134
3.06667	8133
3.06733	8132
3.06800	8131
3.06867	8129
3.06933	8128
3.07000	8127
3.07067	8126
3.07133	8125
3.07200	8124
3.07267	8123
3.07333	8122
3.07400	8121
3.07467	8120
3.07533	8119
3.07600	8118
3.07667	8118
3.07733	8117
3.07800	8116
3.07867	8115
3.07933	8114
3.08000	8113
3.08067	8113
3.08133	8112
3.08200	8111
3.08267	8110
3.08333	8110
3.08400	8109
3.08467	8108
3.08533	8108
3.08600	8107
3.08667	8106
3.08733	8105
3.08800	8104
3.08867	8104
3.08933	8103
3.09000	8102
3.09067	8101
3.09133	8101
3.09200	8100
3.09267	8099
3.09333	8098
3.09400	8097
3.09467	8097
3.09533	8096
3.09600	8095
3.09667	8094
3.09733	8093
3.09800	8092
3.09867	8092
3.09933	8091
3.10000	8090
3.10067	8089
3.10133	8088
3.10200	8087
3.10267	8086
3.10333	8085
3.10400	8084
3.10467	8083
3.10533	8082
3.10600	8080
3.10667	8079
3.10733	8078
3.10800	8077
3.10867	8076
3.10933	8074
3.11000	8073
3.11067	8072
3.11133	8070
3.11200	8069
3.11267	8068
3.11333	8067
3.11400	8065
3.11467	8064
3.11533	8063
3.11600	8061
3.11667	8060
3.11733	8058
3.11800	8057
3.11867	8055
3.11933	8054
3.12000	8052
3.12067	8051
3.12133	8049
3.12200	8048
3.12267	8046
3.12333	8044
3.12400	8043
3.12467	8041
3.12533	8039
3.12600	8038
3.12667	8036
3.12733	8034
3.12800	8033
3.12867	8031
3.12933	8029
3.13000	8028
3.13067	8026
3.13133	8024
3.13200	8023
3.13267	8021
3.13333	8020
3.13400	8018
3.13467	8016
3.13533	8015
3.13600	8013
3.13667	8012
3.13733	8010
3.13800	8009
3.13867	8007
3.13933	8006
3.14000	8005
3.14067	8003
3.14133	8002
3.14200	8000
3.14267	7999
3.14333	7997
3.14400	7996
3.14467	7994
3.14533	7993
3.14600	7992
3.14667	7991
3.14733	7989
3.14800	7988
3.14867	7987
3.14933	7986
3.15000	7984
3.15067	7983
3.15133	7982
3.15200	7981
3.15267	7980
3.15333	7979
3.15400	7978
3.15467	7977
3.15533	7976
3.15600	7975
3.15667	7974
3.15733	7973
3.15800	7972
3.15867	7971
3.15933	7970
3.16000	7969
3.16067	7968
3.16133	7967
3.16200	7966
3.16267	7965
3.16333	7964
3.16400	7964
3.16467	7963
3.16533	7962
3.16600	7961
3.16667	7960
3.16733	7959
3.16800	7958
3.16867	7957
3.16933	7956
3.17000	7956
3.17067	7955
3.17133	7954
3.17200	7953
3.17267	7952
3.17333	7951
3.17400	7951
3.17467	7950
3.17533	7949
3.17600	7948
3.17667	7948
3.17733	7947
3.17800	7946
3.17867	7946
3.17933	7945
3.18000	7945
3.18067	7944
3.18133	7944
3.18200	7943
3.18267	7942
3.18333	7942
3.18400	7941
3.18467	7941
3.18533	7940
3.18600	7940
3.18667	7939
3.18733	7939
3.18800	7938
3.18867	7938
3.18933	7937
3.19000	7936
3.19067	7936
3.19133	7935
3.19200	7935
3.19267	7934
3.19333	7934
3.19400	7933
3.19467	7933
3.19533	7932
3.19600	7932
3.19667	7931
3.19733	7931
3.19800	7931
3.19867	7930
3.19933	7930
3.20000	7930
3.20067	7930
3.20133	7929
3.20200	7929
3.20267	7929
3.20333	7929
3.20400	7929
3.20467	7929
3.20533	7929
3.20600	7929
3.20667	7929
3.20733	7930
3.20800	7930
3.20867	7930
3.20933	7930
3.21000	7930
3.21067	7931
3.21133	7931
3.21200	7931
3.21267	7931
3.21333	7932
3.21400	7932
3.21467	7932
3.21533	7933
3.21600	7933
3.21667	7933
3.21733	7934
3.21800	7934
3.21867	7935
3.21933	7935
3.22000	7936
3.22067	7936
3.22133	7937
3.22200	7937
3.22267	7938
3.22333	7939
3.22400	7940
3.22467	7940
3.22533	7941
3.22600	7942
3.22667	7943
3.22733	7944
3.22800	7945
3.22867	7946
3.22933	7947
3.23000	7948
3.23067	7949
3.23133	7950
3.23200	7951
3.23267	7952
3.23333	7953
3.23400	7954
3.23467	7955
3.23533	7956
3.23600	7957
3.23667	7958
3.23733	7959
3.23800	7960
3.23867	7961
3.23933	7963
3.24000	7964
3.24067	7965
3.24133	7966
3.24200	7967
3.24267	7968
3.24333	7970
3.24400	7971
3.24467	7972
3.24533	7973
3.24600	7974
3.24667	7975
3.24733	7976
3.24800	7977
3.24867	7978
3.24933	7979
3.25000	7980
3.25067	7981
3.25133	7983
3.25200	7984
3.25267	7985
3.25333	7986
3.25400	7987
3.25467	7988
3.25533	7989
3.25600	7990
3.25667	7992
3.25733	7993
3.25800	7994
3.25867	7995
3.25933	7996
3.26000	7997
3.26067	7999
3.26133	8000
3.26200	8001
3.26267	8002
3.26333	8004
3.26400	8005
3.26467	8006
3.26533	8007
3.26600	8009
3.26667	8010
3.26733	8011
3.26800	8013
3.26867	8014
3.26933	8015
3.27000	8016
3.27067	8018
3.27133	8019
3.27200	8020
3.27267	8022
3.27333	8023
3.27400	8024
3.27467	8025
3.27533	8027
3.27600	8028
3.27667	8029
3.27733	8030
3.27800	8031
3.27867	8033
3.27933	8034
3.28000	8035
3.28067	8036
3.28133	8037
3.28200	8039
3.28267	8040
3.28333	8041
3.28400	8042
3.28467	8044
3.28533	8045
3.28600	8046
3.28667	8047
3.28733	8048
3.28800	8050
3.28867	8051
3.28933	8052
3.29000	8053
3.29067	8054
3.29133	8056
3.29200	8057
3.29267	8058
3.29333	8059
3.29400	8060
3.29467	8061
3.29533	8063
3.29600	8064
3.29667	8065
3.29733	8066
3.29800	8067
3.29867	8069
3.29933	8070
3.30000	8071
3.30067	8072
3.30133	8073
3.30200	8074
3.30267	8075
3.30333	8076
3.30400	8078
3.30467	8079
3.30533	8080
3.30600	8081
3.30667	8082
3.30733	8083
3.30800	8084
3.30867	8085
3.30933	8086
3.31000	8087
3.31067	8088
3.31133	8090
3.31200	8091
3.31267	8092
3.31333	8093
3.31400	8094
3.31467	8095
3.31533	8096
3.31600	8097
3.31667	8098
3.31733	8099
3.31800	8100
3.31867	8101
3.31933	8102
3.32000	8103
3.32067	8104
3.32133	8105
3.32200	8106
3.32267	8106
3.32333	8107
3.32400	8108
3.32467	8109
3.32533	8109
3.32600	8110
3.32667	8110
3.32733	8111
3.32800	8111
3.32867	8111
3.32933	8112
3.33000	8112
3.33067	8112
3.33133	8113
3.33200	8113
3.33267	8113
3.33333	8114
3.33400	8114
3.33467	8114
3.33533	8114
3.33600	8115
3.33667	8115
3.33733	8115
3.33800	8115
3.33867	8115
3.33933	8115
3.34000	8116
3.34067	8116
3.34133	8116
3.34200	8116
3.34267	8116
3.34333	8116
3.34400	8116
3.34467	8116
3.34533	8116
3.34600	8116
3.34667	8116
3.34733	8116
3.34800	8116
3.34867	8116
3.34933	8116
3.35000	8115
3.35067	8115
3.35133	8115
3.35200	8114
3.35267	8114
3.35333	8114
3.35400	8113
3.35467	8113
3.35533	8112
3.35600	8112
3.35667	8112
3.35733	8111
3.35800	8111
3.35867	8110
3.35933	8110
3.36000	8109
3.36067	8109
3.36133	8109
3.36200	8108
3.36267	8108
3.36333	8107
3.36400	8107
3.36467	8106
3.36533	8106
3.36600	8106
3.36667	8105
3.36733	8105
3.36800	8104
3.36867	8104
3.36933	8103
3.37000	8103
3.37067	8102
3.37133	8102
3.37200	8101
3.37267	8101
3.37333	8100
3.37400	8100
3.37467	8099
3.37533	8098
3.37600	8098
3.37667	8097
3.37733	8096
3.37800	8096
3.37867	8095
3.37933	8094
3.38000	8094
3.38067	8093
3.38133	8092
3.38200	8091
3.38267	8090
3.38333	8089
3.38400	8089
3.38467	8088
3.38533	8087
3.38600	8086
3.38667	8085
3.38733	8083
3.38800	8082
3.38867	8081
3.38933	8080
3.39000	8079
3.39067	8078
3.39133	8076
3.39200	8075
3.39267	8074
3.39333	8072
3.39400	8071
3.39467	8069
3.39533	8068
3.39600	8067
3.39667	8065
3.39733	8063
3.39800	8062
3.39867	8060
3.39933	8059
3.40000	8057
3.40067	8055
3.40133	8054
3.40200	8052
3.40267	8050
3.40333	8049
3.40400	8047
3.40467	8045
3.40533	8044
3.40600	8042
3.40667	8040
3.40733	8038
3.40800	8036
3.40867	8035
3.40933	8033
3.41000	8031
3.41067	8029
3.41133	8027
3.41200	8026
3.41267	8024
3.41333	8022
3.41400	8020
3.41467	8018
3.41533	8016
3.41600	8014
3.41667	8013
3.41733	8011
3.41800	8009
3.41867	8007
3.41933	8005
3.42000	8003
3.42067	8002
3.42133	8000
3.42200	7998
3.42267	7996
3.42333	7995
3.42400	7993
3.42467	7991
3.42533	7989
3.42600	7987
3.42667	7986
3.42733	7984
3.42800	7982
3.42867	7980
3.42933	7979
3.43000	7977
3.43067	7975
3.43133	7973
3.43200	7971
3.43267	7970
3.43333	7968
3.43400	7966
3.43467	7964
3.43533	7962
3.43600	7960
3.43667	7958
3.43733	7956
3.43800	7955
3.43867	7953
3.43933	7951
3.44000	7949
3.44067	7947
3.44133	7946
3.44200	7944
3.44267	7943
3.44333	7941
3.44400	7940
3.44467	7938
3.44533	7937
3.44600	7935
3.44667	7934
3.44733	7933
3.44800	7932
3.44867	7930
3.44933	7929
3.45000	7928
3.45067	7927
3.45133	7926
3.45200	7925
3.45267	7925
3.45333	7924
3.45400	7923
3.45467	7922
3.45533	7921
3.45600	7921
3.45667	7920
3.45733	7920
3.45800	7919
3.45867	7919
3.45933	7918
3.46000	7918
3.46067	7918
3.46133	7917
3.46200	7917
3.46267	7917
3.46333	7917
3.46400	7917
3.46467	7917
3.46533	7917
3.46600	7917
3.46667	7917
3.46733	7917
3.46800	7917
3.46867	7918
3.46933	7918
3.47000	7918
3.47067	7919
3.47133	7919
3.47200	7920
3.47267	7920
3.47333	7921
3.47400	7922
3.47467	7922
3.47533	7923
3.47600	7924
3.47667	7925
3.47733	7926
3.47800	7927
3.47867	7928
3.47933	7929
3.48000	7930
3.48067	7931
3.48133	7933
3.48200	7934
3.48267	7936
3.48333	7937
3.48400	7939
3.48467	7940
3.48533	7942
3.48600	7944
3.48667	7945
3.48733	7947
3.48800	7949
3.48867	7951
3.48933	7954
3.49000	7956
3.49067	7958
3.49133	7960
3.49200	7963
3.49267	7966
3.49333	7968
3.49400	7971
3.49467	7974
3.49533	7977
3.49600	7981
3.49667	7984
3.49733	7988
3.49800	7992
3.49867	7996
3.49933	8000
3.50000	8004
3.50067	8009
3.50133	8014
3.50200	8019
3.50267	8024
3.50333	8030
3.50400	8036
3.50467	8042
3.50533	8049
3.50600	8056
3.50667	8063
3.50733	8071
3.50800	8079
3.50867	8087
3.50933	8096
3.51000	8105
3.51067	8115
3.51133	8125
3.51200	8136
3.51267	8147
3.51333	8159
3.51400	8171
3.51467	8184
3.51533	8197
3.51600	8211
3.51667	8226
3.51733	8241
3.51800	8257
3.51867	8274
3.51933	8292
3.52000	8310
3.52067	8329
3.52133	8349
3.52200	8369
3.52267	8391
3.52333	8413
3.52400	8436
3.52467	8460
3.52533	8485
3.52600	8511
3.52667	8538
3.52733	8566
3.52800	8595
3.52867	8625
3.52933	8656
3.53000	8688
3.53067	8721
3.53133	8755
3.53200	8791
3.53267	8827
3.53333	8865
3.53400	8903
3.53467	8943
3.53533	8984
3.53600	9026
3.53667	9069
3.53733	9113
3.53800	9159
3.53867	9205
3.53933	9253
3.54000	9302
3.54067	9352
3.54133	9403
3.54200	9456
3.54267	9509
3.54333	9564
3.54400	9620
3.54467	9678
3.54533	9736
3.54600	9796
3.54667	9857
3.54733	9919
3.54800	9983
3.54867	10048
3.54933	10114
3.55000	10181
3.55067	10249
3.55133	10319
3.55200	10390
3.55267	10462
3.55333	10535
3.55400	10609
3.55467	10684
3.55533	10761
3.55600	10838
3.55667	10917
3.55733	10997
3.55800	11078
3.55867	11160
3.55933	11243
3.56000	11327
3.56067	11412
3.56133	11499
3.56200	11587
3.56267	11676
3.56333	11766
3.56400	11857
3.56467	11950
3.56533	12044
3.56600	12139
3.56667	12235
3.56733	12333
3.56800	12432
3.56867	12533
3.56933	12635
3.57000	12739
3.57067	12844
3.57133	12950
3.57200	13059
3.57267	13169
3.57333	13280
3.57400	13394
3.57467	13509
3.57533	13626
3.57600	13744
3.57667	13865
3.57733	13988
3.57800	14112
3.57867	14239
3.57933	14368
3.58000	14499
3.58067	14632
3.58133	14768
3.58200	14906
3.58267	15047
3.58333	15190
3.58400	15336
3.58467	15485
3.58533	15637
3.58600	15792
3.58667	15949
3.58733	16109
3.58800	16272
3.58867	16437
3.58933	16605
3.59000	16776
3.59067	16950
3.59133	17127
3.59200	17306
3.59267	17487
3.59333	17671
3.59400	17858
3.59467	18047
3.59533	18239
3.59600	18433
3.59667	18630
3.59733	18829
3.59800	19030
3.59867	19233
3.59933	19438
3.60000	19646
3.60067	19855
3.60133	20065
3.60200	20278
3.60267	20491
3.60333	20706
3.60400	20922
3.60467	21139
3.60533	21356
3.60600	21573
3.60667	21791
3.60733	22009
3.60800	22226
3.60867	22443
3.60933	22659
3.61000	22874
3.61067	23088
3.61133	23300
3.61200	23511
3.61267	23720
3.61333	23926
3.61400	24130
3.61467	24332
3.61533	24530
3.61600	24725
3.61667	24917
3.61733	25105
3.61800	25290
3.61867	25470
3.61933	25646
3.62000	25817
3.62067	25984
3.62133	26146
3.62200	26302
3.62267	26453
3.62333	26598
3.62400	26738
3.62467	26872
3.62533	26999
3.62600	27120
3.62667	27235
3.62733	27343
3.62800	27444
3.62867	27538
3.62933	27625
3.63000	27705
3.63067	27778
3.63133	27844
3.63200	27902
3.63267	27953
3.63333	27997
3.63400	28033
3.63467	28061
3.63533	28082
3.63600	28096
3.63667	28101
3.63733	28099
3.63800	28090
3.63867	28073
3.63933	28049
3.64000	28017
3.64067	27978
3.64133	27932
3.64200	27879
3.64267	27819
3.64333	27752
3.64400	27678
3.64467	27597
3.64533	27510
3.64600	27417
3.64667	27317
3.64733	27212
3.64800	27100
3.64867	26983
3.64933	26860
3.65000	26732
3.65067	26599
3.65133	26461
3.65200	26318
3.65267	26170
3.65333	26018
3.65400	25861
3.65467	25701
3.65533	25537
3.65600	25369
3.65667	25198
3.65733	25023
3.65800	24845
3.65867	24665
3.65933	24481
3.66000	24295
3.66067	24107
3.66133	23917
3.66200	23725
3.66267	23531
3.66333	23336
3.66400	23140
3.66467	22942
3.66533	22744
3.66600	22544
3.66667	22344
3.66733	22144
3.66800	21943
3.66867	21742
3.66933	21540
3.67000	21339
3.67067	21138
3.67133	20937
3.67200	20737
3.67267	20538
3.67333	20339
3.67400	20141
3.67467	19943
3.67533	19747
3.67600	19552
3.67667	19359
3.67733	19166
3.67800	18975
3.67867	18786
3.67933	18598
3.68000	18412
3.68067	18228
3.68133	18045
3.68200	17864
3.68267	17685
3.68333	17508
3.68400	17333
3.68467	17160
3.68533	16989
3.68600	16820
3.68667	16654
3.68733	16489
3.68800	16326
3.68867	16166
3.68933	16008
3.69000	15852
3.69067	15698
3.69133	15547
3.69200	15398
3.69267	15251
3.69333	15106
3.69400	14964
3.69467	14823
3.69533	14685
3.69600	14550
3.69667	14416
3.69733	14285
3.69800	14156
3.69867	14029
3.69933	13904
3.70000	13781
3.70067	13661
3.70133	13543
3.70200	13426
3.70267	13312
3.70333	13200
3.70400	13090
3.70467	12982
3.70533	12876
3.70600	12772
3.70667	12670
3.70733	12570
3.70800	12472
3.70867	12375
3.70933	12281
3.71000	12188
3.71067	12098
3.71133	12009
3.71200	11922
3.71267	11836
3.71333	11753
3.71400	11671
3.71467	11590
3.71533	11512
3.71600	11434
3.71667	11359
3.71733	11285
3.71800	11212
3.71867	11141
3.71933	11072
3.72000	11004
3.72067	10937
3.72133	10872
3.72200	10808
3.72267	10746
3.72333	10685
3.72400	10625
3.72467	10566
3.72533	10509
3.72600	10453
3.72667	10398
3.72733	10344
3.72800	10292
3.72867	10240
3.72933	10190
3.73000	10140
3.73067	10092
3.73133	10044
3.73200	9998
3.73267	9952
3.73333	9908
3.73400	9864
3.73467	9821
3.73533	9780
3.73600	9739
3.73667	9698
3.73733	9659
3.73800	9621
3.73867	9583
3.73933	9546
3.74000	9510
3.74067	9474
3.74133	9439
3.74200	9405
3.74267	9372
3.74333	9339
3.74400	9307
3.74467	9276
3.74533	9245
3.74600	9215
3.74667	9186
3.74733	9157
3.74800	9129
3.74867	9101
3.74933	9074
3.75000	9048
3.75067	9022
3.75133	8996
3.75200	8971
3.75267	8947
3.75333	8923
3.75400	8899
3.75467	8876
3.75533	8853
3.75600	8831
3.75667	8809
3.75733	8788
3.75800	8767
3.75867	8746
3.75933	8726
3.76000	8706
3.76067	8687
3.76133	8668
3.76200	8649
3.76267	8630
3.76333	8612
3.76400	8595
3.76467	8577
3.76533	8560
3.76600	8543
3.76667	8527
3.76733	8510
3.76800	8494
3.76867	8479
3.76933	8463
3.77000	8448
3.77067	8433
3.77133	8418
3.77200	8404
3.77267	8389
3.77333	8375
3.77400	8362
3.77467	8348
3.77533	8335
3.77600	8322
3.77667	8309
3.77733	8296
3.77800	8284
3.77867	8272
3.77933	8260
3.78000	8248
3.78067	8236
3.78133	8225
3.78200	8213
3.78267	8202
3.78333	8191
3.78400	8180
3.78467	8169
3.78533	8159
3.78600	8148
3.78667	8138
3.78733	8127
3.78800	8117
3.78867	8107
3.78933	8097
3.79000	8087
3.79067	8078
3.79133	8068
3.79200	8058
3.79267	8049
3.79333	8040
3.79400	8031
3.79467	8022
3.79533	8013
3.79600	8004
3.79667	7995
3.79733	7987
3.79800	7978
3.79867	7970
3.79933	7962
3.80000	7954
3.80067	7945
3.80133	7937
3.80200	7930
3.80267	7922
3.80333	7914
3.80400	7906
3.80467	7899
3.80533	7891
3.80600	7884
3.80667	7877
3.80733	7869
3.80800	7862
3.80867	7855
3.80933	7848
3.81000	7841
3.81067	7834
3.81133	7828
3.81200	7821
3.81267	7814
3.81333	7807
3.81400	7801
3.81467	7794
3.81533	7788
3.81600	7782
3.81667	7776
3.81733	7769
3.81800	7763
3.81867	7757
3.81933	7751
3.82000	7745
3.82067	7740
3.82133	7734
3.82200	7728
3.82267	7723
3.82333	7717
3.82400	7712
3.82467	7706
3.82533	7701
3.82600	7696
3.82667	7691
3.82733	7685
3.82800	7680
3.82867	7675
3.82933	7670
3.83000	7665
3.83067	7660
3.83133	7655
3.83200	7651
3.83267	7646
3.83333	7641
3.83400	7636
3.83467	7632
3.83533	7627
3.83600	7622
3.83667	7618
3.83733	7614
3.83800	7609
3.83867	7605
3.83933	7600
3.84000	7596
3.84067	7592
3.84133	7588
3.84200	7583
3.84267	7579
3.84333	7575
3.84400	7571
3.84467	7567
3.84533	7563
3.84600	7559
3.84667	7555
3.84733	7551
3.84800	7547
3.84867	7543
3.84933	7539
3.85000	7536
3.85067	7532
3.85133	7528
3.85200	7525
3.85267	7521
3.85333	7517
3.85400	7514
3.85467	7510
3.85533	7507
3.85600	7503
3.85667	7500
3.85733	7496
3.85800	7493
3.85867	7489
3.85933	7486
3.86000	7482
3.86067	7479
3.86133	7475
3.86200	7472
3.86267	7469
3.86333	7465
3.86400	7462
3.86467	7459
3.86533	7455
3.86600	7452
3.86667	7449
3.86733	7446
3.86800	7442
3.86867	7439
3.86933	7436
3.87000	7433
3.87067	7429
3.87133	7426
3.87200	7423
3.87267	7420
3.87333	7417
3.87400	7413
3.87467	7410
3.87533	7407
3.87600	7404
3.87667	7401
3.87733	7397
3.87800	7394
3.87867	7391
3.87933	7388
3.88000	7385
3.88067	7382
3.88133	7379
3.88200	7375
3.88267	7372
3.88333	7369
3.88400	7366
3.88467	7363
3.88533	7360
3.88600	7357
3.88667	7354
3.88733	7351
3.88800	7347
3.88867	7344
3.88933	7341
3.89000	7338
3.89067	7335
3.89133	7332
3.89200	7329
3.89267	7326
3.89333	7324
3.89400	7321
3.89467	7318
3.89533	7315
3.89600	7312
3.89667	7309
3.89733	7307
3.89800	7304
3.89867	7301
3.89933	7298
3.90000	7295
3.90067	7292
3.90133	7290
3.90200	7287
3.90267	7284
3.90333	7281
3.90400	7279
3.90467	7276
3.90533	7273
3.90600	7270
3.90667	7268
3.90733	7265
3.90800	7262
3.90867	7260
3.90933	7257
3.91000	7254
3.91067	7251
3.91133	7249
3.91200	7246
3.91267	7243
3.91333	7241
3.91400	7238
3.91467	7236
3.91533	7233
3.91600	7230
3.91667	7228
3.91733	7225
3.91800	7222
3.91867	7220
3.91933	7217
3.92000	7215
3.92067	7212
3.92133	7210
3.92200	7207
3.92267	7205
3.92333	7203
3.92400	7200
3.92467	7198
3.92533	7195
3.92600	7193
3.92667	7191
3.92733	7188
3.92800	7186
3.92867	7183
3.92933	7181
3.93000	7179
3.93067	7176
3.93133	7174
3.93200	7172
3.93267	7170
3.93333	7167
3.93400	7165
3.93467	7163
3.93533	7161
3.93600	7158
3.93667	7156
3.93733	7154
3.93800	7152
3.93867	7150
3.93933	7147
3.94000	7145
3.94067	7143
3.94133	7141
3.94200	7139
3.94267	7137
3.94333	7134
3.94400	7132
3.94467	7130
3.94533	7128
3.94600	7126
3.94667	7124
3.94733	7122
3.94800	7121
3.94867	7119
3.94933	7117
3.95000	7115
3.95067	7113
3.95133	7112
3.95200	7110
3.95267	7108
3.95333	7106
3.95400	7105
3.95467	7103
3.95533	7101
3.95600	7100
3.95667	7098
3.95733	7097
3.95800	7095
3.95867	7093
3.95933	7092
3.96000	7090
3.96067	7088
3.96133	7086
3.96200	7085
3.96267	7083
3.96333	7082
3.96400	7080
3.96467	7078
3.96533	7077
3.96600	7075
3.96667	7073
3.96733	7072
3.96800	7070
3.96867	7068
3.96933	7067
3.97000	7065
3.97067	7063
3.97133	7062
3.97200	7060
3.97267	7059
3.97333	7057
3.97400	7055
3.97467	7054
3.97533	7052
3.97600	7050
3.97667	7049
3.97733	7047
3.97800	7046
3.97867	7044
3.97933	7043
3.98000	7041
3.98067	7040
3.98133	7039
3.98200	7037
3.98267	7036
3.98333	7035
3.98400	7034
3.98467	7033
3.98533	7032
3.98600	7031
3.98667	7029
3.98733	7028
3.98800	7027
3.98867	7026
3.98933	7026
3.99000	7025
3.99067	7024
3.99133	7023
3.99200	7022
3.99267	7021
3.99333	7020
3.99400	7019
3.99467	7018
3.99533	7018
3.99600	7017
3.99667	7016
3.99733	7015
3.99800	7014
3.99867	7013
3.99933	7013
4.00000	7012
4.00067	7011
4.00133	7010
4.00200	7010
4.00267	7009
4.00333	7009
4.00400	7008
4.00467	7007
4.00533	7007
4.00600	7006
4.00667	7006
4.00733	7005
4.00800	7005
4.00867	7004
4.00933	7004
4.01000	7003
4.01067	7003
4.01133	7002
4.01200	7002
4.01267	7001
4.01333	7000
4.01400	7000
4.01467	6999
4.01533	6999
4.01600	6998
4.01667	6998
4.01733	6997
4.01800	6996
4.01867	6996
4.01933	6995
4.02000	6995
4.02067	6994
4.02133	6993
4.02200	6993
4.02267	6992
4.02333	6991
4.02400	6991
4.02467	6990
4.02533	6990
4.02600	6989
4.02667	6988
4.02733	6988
4.02800	6987
4.02867	6986
4.02933	6986
4.03000	6985
4.03067	6985
4.03133	6984
4.03200	6984
4.03267	6983
4.03333	6983
4.03400	6982
4.03467	6982
4.03533	6981
4.03600	6981
4.03667	6980
4.03733	6980
4.03800	6979
4.03867	6979
4.03933	6979
4.04000	6978
4.04067	6978
4.04133	6978
4.04200	6978
4.04267	6977
4.04333	6977
4.04400	6977
4.04467	6977
4.04533	6976
4.04600	6976
4.04667	6976
4.04733	6976
4.04800	6976
4.04867	6976
4.04933	6976
4.05000	6975
4.05067	6975
4.05133	6975
4.05200	6975
4.05267	6976
4.05333	6976
4.05400	6976
4.05467	6976
4.05533	6976
4.05600	6976
4.05667	6976
4.05733	6977
4.05800	6977
4.05867	6977
4.05933	6977
4.06000	6978
4.06067	6978
4.06133	6979
4.06200	6979
4.06267	6980
4.06333	6980
4.06400	6981
4.06467	6982
4.06533	6982
4.06600	6983
4.06667	6984
4.06733	6985
4.06800	6986
4.06867	6987
4.06933	6988
4.07000	6990
4.07067	6991
4.07133	6992
4.07200	6994
4.07267	6995
4.07333	6997
4.07400	6998
4.07467	7000
4.07533	7002
4.07600	7004
4.07667	7006
4.07733	7008
4.07800	7011
4.07867	7013
4.07933	7016
4.08000	7018
4.08067	7021
4.08133	7024
4.08200	7027
4.08267	7030
4.08333	7033
4.08400	7036
4.08467	7039
4.08533	7043
4.08600	7046
4.08667	7050
4.08733	7054
4.08800	7058
4.08867	7062
4.08933	7066
4.09000	7070
4.09067	7075
4.09133	7079
4.09200	7084
4.09267	7089
4.09333	7094
4.09400	7099
4.09467	7104
4.09533	7109
4.09600	7114
4.09667	7120
4.09733	7125
4.09800	7131
4.09867	7137
4.09933	7142
4.10000	7148
4.10067	7154
4.10133	7161
4.10200	7167
4.10267	7173
4.10333	7180
4.10400	7186
4.10467	7193
4.10533	7200
4.10600	7207
4.10667	7214
4.10733	7221
4.10800	7228
4.10867	7235
4.10933	7242
4.11000	7250
4.11067	7257
4.11133	7264
4.11200	7272
4.11267	7280
4.11333	7287
4.11400	7295
4.11467	7303
4.11533	7310
4.11600	7318
4.11667	7326
4.11733	7334
4.11800	7342
4.11867	7350
4.11933	7358
4.12000	7365
4.12067	7373
4.12133	7381
4.12200	7389
4.12267	7397
4.12333	7405
4.12400	7412
4.12467	7420
4.12533	7428
4.12600	7436
4.12667	7443
4.12733	7451
4.12800	7459
4.12867	7466
4.12933	7474
4.13000	7482
4.13067	7489
4.13133	7497
4.13200	7504
4.13267	7511
4.13333	7519
4.13400	7526
4.13467	7533
4.13533	7540
4.13600	7547
4.13667	7554
4.13733	7561
4.13800	7568
4.13867	7575
4.13933	7582
4.14000	7589
4.14067	7596
4.14133	7602
4.14200	7609
4.14267	7616
4.14333	7622
4.14400	7629
4.14467	7636
4.14533	7642
4.14600	7648
4.14667	7655
4.14733	7661
4.14800	7667
4.14867	7673
4.14933	7680
4.15000	7686
4.15067	7692
4.15133	7698
4.15200	7704
4.15267	7709
4.15333	7715
4.15400	7721
4.15467	7727
4.15533	7733
4.15600	7738
4.15667	7744
4.15733	7749
4.15800	7755
4.15867	7761
4.15933	7766
4.16000	7772
4.16067	7777
4.16133	7783
4.16200	7788
4.16267	7794
4.16333	7800
4.16400	7806
4.16467	7811
4.16533	7817
4.16600	7823
4.16667	7829
4.16733	7835
4.16800	7842
4.16867	7848
4.16933	7855
4.17000	7861
4.17067	7868
4.17133	7875
4.17200	7882
4.17267	7890
4.17333	7897
4.17400	7905
4.17467	7913
4.17533	7921
4.17600	7930
4.17667	7938
4.17733	7948
4.17800	7957
4.17867	7967
4.17933	7977
4.18000	7988
4.18067	7999
4.18133	8010
4.18200	8022
4.18267	8035
4.18333	8048
4.18400	8061
4.18467	8076
4.18533	8090
4.18600	8106
4.18667	8122
4.18733	8139
4.18800	8157
4.18867	8175
4.18933	8194
4.19000	8214
4.19067	8235
4.19133	8257
4.19200	8280
4.19267	8304
4.19333	8330
4.19400	8356
4.19467	8383
4.19533	8412
4.19600	8442
4.19667	8473
4.19733	8506
4.19800	8540
4.19867	8576
4.19933	8613
4.20000	8652
4.20067	8693
4.20133	8736
4.20200	8780
4.20267	8827
4.20333	8876
4.20400	8926
4.20467	8980
4.20533	9035
4.20600	9093
4.20667	9154
4.20733	9218
4.20800	9284
4.20867	9354
4.20933	9426
4.21000	9502
4.21067	9581
4.21133	9664
4.21200	9750
4.21267	9840
4.21333	9934
4.21400	10032
4.21467	10134
4.21533	10240
4.21600	10351
4.21667	10467
4.21733	10587
4.21800	10712
4.21867	10842
4.21933	10977
4.22000	11118
4.22067	11264
4.22133	11416
4.22200	11574
4.22267	11738
4.22333	11908
4.22400	12084
4.22467	12267
4.22533	12457
4.22600	12654
4.22667	12858
4.22733	13069
4.22800	13287
4.22867	13513
4.22933	13747
4.23000	13989
4.23067	14239
4.23133	14497
4.23200	14763
4.23267	15038
4.23333	15322
4.23400	15615
4.23467	15917
4.23533	16228
4.23600	16548
4.23667	16878
4.23733	17217
4.23800	17566
4.23867	17924
4.23933	18293
4.24000	18671
4.24067	19059
4.24133	19458
4.24200	19867
4.24267	20286
4.24333	20715
4.24400	21155
4.24467	21606
4.24533	22067
4.24600	22539
4.24667	23022
4.24733	23516
4.24800	24022
4.24867	24538
4.24933	25066
4.25000	25606
4.25067	26157
4.25133	26720
4.25200	27294
4.25267	27880
4.25333	28479
4.25400	29088
4.25467	29710
4.25533	30343
4.25600	30987
4.25667	31644
4.25733	32312
4.25800	32991
4.25867	33683
4.25933	34386
4.26000	35101
4.26067	35828
4.26133	36566
4.26200	37316
4.26267	38076
4.26333	38848
4.26400	39631
4.26467	40424
4.26533	41228
4.26600	42042
4.26667	42866
4.26733	43699
4.26800	44543
4.26867	45395
4.26933	46256
4.27000	47125
4.27067	48003
4.27133	48889
4.27200	49783
4.27267	50684
4.27333	51592
4.27400	52508
4.27467	53430
4.27533	54359
4.27600	55294
4.27667	56235
4.27733	57181
4.27800	58132
4.27867	59088
4.27933	60048
4.28000	61012
4.28067	61979
4.28133	62950
4.28200	63923
4.28267	64898
4.28333	65874
4.28400	66852
4.28467	67831
4.28533	68809
4.28600	69787
4.28667	70763
4.28733	71738
4.28800	72710
4.28867	73678
4.28933	74643
4.29000	75603
4.29067	76557
4.29133	77505
4.29200	78447
4.29267	79382
4.29333	80308
4.29400	81227
4.29467	82136
4.29533	83037
4.29600	83927
4.29667	84808
4.29733	85677
4.29800	86535
4.29867	87381
4.29933	88216
4.30000	89037
4.30067	89846
4.30133	90641
4.30200	91422
4.30267	92190
4.30333	92942
4.30400	93680
4.30467	94403
4.30533	95110
4.30600	95803
4.30667	96479
4.30733	97139
4.30800	97783
4.30867	98410
4.30933	99021
4.31000	99614
4.31067	100190
4.31133	100748
4.31200	101288
4.31267	101810
4.31333	102314
4.31400	102799
4.31467	103265
4.31533	103713
4.31600	104142
4.31667	104552
4.31733	104944
4.31800	105316
4.31867	105670
4.31933	106005
4.32000	106321
4.32067	106618
4.32133	106897
4.32200	107156
4.32267	107397
4.32333	107619
4.32400	107823
4.32467	108009
4.32533	108176
4.32600	108325
4.32667	108456
4.32733	108569
4.32800	108663
4.32867	108740
4.32933	108799
4.33000	108839
4.33067	108862
4.33133	108868
4.33200	108855
4.33267	108825
4.33333	108778
4.33400	108713
4.33467	108632
4.33533	108534
4.33600	108419
4.33667	108289
4.33733	108142
4.33800	107979
4.33867	107801
4.33933	107608
4.34000	107399
4.34067	107175
4.34133	106937
4.34200	106685
4.34267	106418
4.34333	106137
4.34400	105843
4.34467	105535
4.34533	105215
4.34600	104881
4.34667	104535
4.34733	104177
4.34800	103808
4.34867	103426
4.34933	103033
4.35000	102629
4.35067	102214
4.35133	101787
4.35200	101351
4.35267	100904
4.35333	100447
4.35400	99981
4.35467	99505
4.35533	99021
4.35600	98528
4.35667	98026
4.35733	97516
4.35800	96999
4.35867	96473
4.35933	95940
4.36000	95400
4.36067	94852
4.36133	94298
4.36200	93738
4.36267	93170
4.36333	92597
4.36400	92019
4.36467	91434
4.36533	90845
4.36600	90251
4.36667	89653
4.36733	89050
4.36800	88443
4.36867	87833
4.36933	87218
4.37000	86600
4.37067	85979
4.37133	85355
4.37200	84728
4.37267	84099
4.37333	83468
4.37400	82834
4.37467	82199
4.37533	81562
4.37600	80924
4.37667	80284
4.37733	79644
4.37800	79003
4.37867	78362
4.37933	77720
4.38000	77078
4.38067	76436
4.38133	75794
4.38200	75153
4.38267	74512
4.38333	73872
4.38400	73233
4.38467	72595
4.38533	71959
4.38600	71325
4.38667	70692
4.38733	70062
4.38800	69433
4.38867	68808
4.38933	68184
4.39000	67564
4.39067	66947
4.39133	66333
4.39200	65722
4.39267	65114
4.39333	64510
4.39400	63910
4.39467	63313
4.39533	62720
4.39600	62130
4.39667	61545
4.39733	60964
4.39800	60387
4.39867	59814
4.39933	59245
4.40000	58681
4.40067	58122
4.40133	57566
4.40200	57016
4.40267	56470
4.40333	55929
4.40400	55393
4.40467	54862
4.40533	54335
4.40600	53814
4.40667	53298
4.40733	52787
4.40800	52282
4.40867	51782
4.40933	51286
4.41000	50797
4.41067	50312
4.41133	49833
4.41200	49359
4.41267	48891
4.41333	48428
4.41400	47971
4.41467	47519
4.41533	47073
4.41600	46633
4.41667	46198
4.41733	45769
4.41800	45345
4.41867	44927
4.41933	44514
4.42000	44107
4.42067	43706
4.42133	43310
4.42200	42919
4.42267	42534
4.42333	42154
4.42400	41780
4.42467	41410
4.42533	41046
4.42600	40687
4.42667	40333
4.42733	39985
4.42800	39641
4.42867	39303
4.42933	38969
4.43000	38641
4.43067	38317
4.43133	37999
4.43200	37685
4.43267	37375
4.43333	37071
4.43400	36771
4.43467	36475
4.43533	36184
4.43600	35897
4.43667	35615
4.43733	35337
4.43800	35063
4.43867	34794
4.43933	34529
4.44000	34268
4.44067	34012
4.44133	33759
4.44200	33511
4.44267	33267
4.44333	33026
4.44400	32790
4.44467	32558
4.44533	32329
4.44600	32104
4.44667	31883
4.44733	31665
4.44800	31452
4.44867	31242
4.44933	31035
4.45000	30832
4.45067	30633
4.45133	30437
4.45200	30245
4.45267	30057
4.45333	29872
4.45400	29690
4.45467	29512
4.45533	29337
4.45600	29165
4.45667	28997
4.45733	28832
4.45800	28670
4.45867	28511
4.45933	28356
4.46000	28203
4.46067	28054
4.46133	27908
4.46200	27765
4.46267	27625
4.46333	27487
4.46400	27353
4.46467	27222
4.46533	27093
4.46600	26968
4.46667	26844
4.46733	26724
4.46800	26606
4.46867	26491
4.46933	26378
4.47000	26268
4.47067	26160
4.47133	26054
4.47200	25952
4.47267	25851
4.47333	25753
4.47400	25657
4.47467	25564
4.47533	25472
4.47600	25383
4.47667	25296
4.47733	25212
4.47800	25129
4.47867	25049
4.47933	24970
4.48000	24894
4.48067	24819
4.48133	24747
4.48200	24676
4.48267	24607
4.48333	24541
4.48400	24476
4.48467	24412
4.48533	24351
4.48600	24291
4.48667	24233
4.48733	24177
4.48800	24122
4.48867	24069
4.48933	24018
4.49000	23968
4.49067	23919
4.49133	23873
4.49200	23827
4.49267	23784
4.49333	23741
4.49400	23700
4.49467	23661
4.49533	23623
4.49600	23586
4.49667	23551
4.49733	23516
4.49800	23483
4.49867	23451
4.49933	23419
4.50000	23389
4.50067	23360
4.50133	23331
4.50200	23303
4.50267	23277
4.50333	23251
4.50400	23226
4.50467	23202
4.50533	23178
4.50600	23156
4.50667	23134
4.50733	23112
4.50800	23091
4.50867	23071
4.50933	23051
4.51000	23031
4.51067	23012
4.51133	22993
4.51200	22974
4.51267	22956
4.51333	22937
4.51400	22919
4.51467	22901
4.51533	22884
4.51600	22866
4.51667	22849
4.51733	22831
4.51800	22814
4.51867	22797
4.51933	22779
4.52000	22762
4.52067	22745
4.52133	22727
4.52200	22710
4.52267	22693
4.52333	22676
4.52400	22659
4.52467	22642
4.52533	22626
4.52600	22609
4.52667	22593
4.52733	22577
4.52800	22561
4.52867	22545
4.52933	22530
4.53000	22515
4.53067	22500
4.53133	22485
4.53200	22470
4.53267	22456
4.53333	22442
4.53400	22428
4.53467	22415
4.53533	22401
4.53600	22388
4.53667	22375
4.53733	22363
4.53800	22350
4.53867	22337
4.53933	22325
4.54000	22313
4.54067	22301
4.54133	22289
4.54200	22277
4.54267	22265
4.54333	22253
4.54400	22242
4.54467	22230
4.54533	22219
4.54600	22208
4.54667	22198
4.54733	22187
4.54800	22177
4.54867	22167
4.54933	22158
4.55000	22148
4.55067	22139
4.55133	22131
4.55200	22123
4.55267	22115
4.55333	22108
4.55400	22101
4.55467	22094
4.55533	22088
4.55600	22083
4.55667	22077
4.55733	22073
4.55800	22068
4.55867	22065
4.55933	22061
4.56000	22059
4.56067	22057
4.56133	22055
4.56200	22054
4.56267	22054
4.56333	22054
4.56400	22054
4.56467	22056
4.56533	22058
4.56600	22060
4.56667	22063
4.56733	22067
4.56800	22071
4.56867	22075
4.56933	22081
4.57000	22086
4.57067	22093
4.57133	22100
4.57200	22107
4.57267	22115
4.57333	22124
4.57400	22133
4.57467	22143
4.57533	22153
4.57600	22163
4.57667	22174
4.57733	22186
4.57800	22198
4.57867	22210
4.57933	22222
4.58000	22235
4.58067	22248
4.58133	22261
4.58200	22274
4.58267	22287
4.58333	22300
4.58400	22313
4.58467	22326
4.58533	22339
4.58600	22352
4.58667	22364
4.58733	22376
4.58800	22388
4.58867	22400
4.58933	22412
4.59000	22423
4.59067	22434
4.59133	22444
4.59200	22455
4.59267	22464
4.59333	22474
4.59400	22483
4.59467	22491
4.59533	22499
4.59600	22507
4.59667	22513
4.59733	22519
4.59800	22524
4.59867	22529
4.59933	22533
4.60000	22536
4.60067	22538
4.60133	22539
4.60200	22539
4.60267	22539
4.60333	22538
4.60400	22536
4.60467	22533
4.60533	22530
4.60600	22525
4.60667	22520
4.60733	22514
4.60800	22507
4.60867	22499
4.60933	22490
4.61000	22480
4.61067	22470
4.61133	22458
4.61200	22445
4.61267	22432
4.61333	22417
4.61400	22401
4.61467	22385
4.61533	22367
4.61600	22348
4.61667	22328
4.61733	22308
4.61800	22286
4.61867	22263
4.61933	22240
4.62000	22215
4.62067	22190
4.62133	22163
4.62200	22136
4.62267	22108
4.62333	22080
4.62400	22050
4.62467	22020
4.62533	21988
4.62600	21956
4.62667	21923
4.62733	21889
4.62800	21855
4.62867	21819
4.62933	21783
4.63000	21745
4.63067	21707
4.63133	21668
4.63200	21628
4.63267	21588
4.63333	21546
4.63400	21504
4.63467	21461
4.63533	21418
4.63600	21374
4.63667	21329
4.63733	21283
4.63800	21237
4.63867	21190
4.63933	21143
4.64000	21095
4.64067	21046
4.64133	20998
4.64200	20948
4.64267	20899
4.64333	20849
4.64400	20799
4.64467	20748
4.64533	20697
4.64600	20646
4.64667	20595
4.64733	20543
4.64800	20492
4.64867	20440
4.64933	20388
4.65000	20335
4.65067	20283
4.65133	20231
4.65200	20178
4.65267	20126
4.65333	20073
4.65400	20021
4.65467	19968
4.65533	19916
4.65600	19863
4.65667	19811
4.65733	19758
4.65800	19706
4.65867	19654
4.65933	19601
4.66000	19549
4.66067	19497
4.66133	19445
4.66200	19393
4.66267	19341
4.66333	19289
4.66400	19238
4.66467	19186
4.66533	19135
4.66600	19084
4.66667	19033
4.66733	18983
4.66800	18932
4.66867	18882
4.66933	18832
4.67000	18782
4.67067	18732
4.67133	18683
4.67200	18634
4.67267	18585
4.67333	18536
4.67400	18488
4.67467	18440
4.67533	18392
4.67600	18344
4.67667	18297
4.67733	18249
4.67800	18202
4.67867	18156
4.67933	18109
4.68000	18063
4.68067	18017
4.68133	17972
4.68200	17927
4.68267	17882
4.68333	17837
4.68400	17792
4.68467	17748
4.68533	17704
4.68600	17661
4.68667	17617
4.68733	17574
4.68800	17531
4.68867	17489
4.68933	17446
4.69000	17404
4.69067	17363
4.69133	17321
4.69200	17280
4.69267	17240
4.69333	17200
4.69400	17160
4.69467	17120
4.69533	17081
4.69600	17042
4.69667	17003
4.69733	16965
4.69800	16927
4.69867	16889
4.69933	16851
4.70000	16814
4.70067	16777
4.70133	16740
4.70200	16704
4.70267	16668
4.70333	16632
4.70400	16597
4.70467	16562
4.70533	16527
4.70600	16493
4.70667	16459
4.70733	16425
4.70800	16392
4.70867	16358
4.70933	16326
4.71000	16293
4.71067	16261
4.71133	16229
4.71200	16198
4.71267	16166
4.71333	16135
4.71400	16104
4.71467	16074
4.71533	16044
4.71600	16014
4.71667	15985
4.71733	15955
4.71800	15926
4.71867	15898
4.71933	15869
4.72000	15841
4.72067	15813
4.72133	15786
4.72200	15758
4.72267	15731
4.72333	15705
4.72400	15678
4.72467	15652
4.72533	15626
4.72600	15601
4.72667	15575
4.72733	15550
4.72800	15525
4.72867	15500
4.72933	15475
4.73000	15451
4.73067	15427
4.73133	15402
4.73200	15379
4.73267	15355
4.73333	15332
4.73400	15309
4.73467	15286
4.73533	15263
4.73600	15241
4.73667	15218
4.73733	15197
4.73800	15175
4.73867	15153
4.73933	15132
4.74000	15111
4.74067	15090
4.74133	15070
4.74200	15049
4.74267	15029
4.74333	15009
4.74400	14989
4.74467	14969
4.74533	14950
4.74600	14930
4.74667	14911
4.74733	14892
4.74800	14873
4.74867	14854
4.74933	14836
4.75000	14817
4.75067	14799
4.75133	14781
4.75200	14764
4.75267	14746
4.75333	14729
4.75400	14712
4.75467	14695
4.75533	14678
4.75600	14661
4.75667	14644
4.75733	14628
4.75800	14612
4.75867	14595
4.75933	14579
4.76000	14563
4.76067	14547
4.76133	14532
4.76200	14516
4.76267	14500
4.76333	14485
4.76400	14470
4.76467	14455
4.76533	14440
4.76600	14425
4.76667	14410
4.76733	14395
4.76800	14381
4.76867	14366
4.76933	14352
4.77000	14338
4.77067	14323
4.77133	14309
4.77200	14295
4.77267	14281
4.77333	14268
4.77400	14254
4.77467	14240
4.77533	14227
4.77600	14213
4.77667	14200
4.77733	14187
4.77800	14174
4.77867	14161
4.77933	14148
4.78000	14135
4.78067	14122
4.78133	14109
4.78200	14097
4.78267	14085
4.78333	14073
4.78400	14060
4.78467	14049
4.78533	14037
4.78600	14025
4.78667	14014
4.78733	14002
4.78800	13991
4.78867	13979
4.78933	13968
4.79000	13957
4.79067	13946
4.79133	13935
4.79200	13924
4.79267	13913
4.79333	13902
4.79400	13891
4.79467	13881
4.79533	13870
4.79600	13859
4.79667	13849
4.79733	13838
4.79800	13828
4.79867	13817
4.79933	13807
4.80000	13797
4.80067	13787
4.80133	13777
4.80200	13767
4.80267	13757
4.80333	13747
4.80400	13737
4.80467	13727
4.80533	13717
4.80600	13707
4.80667	13698
4.80733	13688
4.80800	13679
4.80867	13669
4.80933	13660
4.81000	13650
4.81067	13641
4.81133	13632
4.81200	13622
4.81267	13613
4.81333	13604
4.81400	13594
4.81467	13585
4.81533	13576
4.81600	13567
4.81667	13557
4.81733	13548
4.81800	13539
4.81867	13530
4.81933	13521
4.82000	13511
4.82067	13502
4.82133	13493
4.82200	13483
4.82267	13474
4.82333	13465
4.82400	13455
4.82467	13446
4.82533	13437
4.82600	13428
4.82667	13418
4.82733	13409
4.82800	13400
4.82867	13390
4.82933	13381
4.83000	13372
4.83067	13363
4.83133	13354
4.83200	13345
4.83267	13336
4.83333	13327
4.83400	13318
4.83467	13310
4.83533	13301
4.83600	13292
4.83667	13283
4.83733	13274
4.83800	13265
4.83867	13256
4.83933	13247
4.84000	13238
4.84067	13229
4.84133	13220
4.84200	13211
4.84267	13202
4.84333	13193
4.84400	13184
4.84467	13175
4.84533	13166
4.84600	13157
4.84667	13148
4.84733	13140
4.84800	13131
4.84867	13122
4.84933	13113
4.85000	13104
4.85067	13095
4.85133	13086
4.85200	13077
4.85267	13068
4.85333	13058
4.85400	13049
4.85467	13040
4.85533	13031
4.85600	13022
4.85667	13013
4.85733	13004
4.85800	12995
4.85867	12986
4.85933	12977
4.86000	12968
4.86067	12959
4.86133	12951
4.86200	12942
4.86267	12933
4.86333	12924
4.86400	12915
4.86467	12907
4.86533	12898
4.86600	12890
4.86667	12881
4.86733	12872
4.86800	12864
4.86867	12856
4.86933	12847
4.87000	12839
4.87067	12831
4.87133	12822
4.87200	12814
4.87267	12806
4.87333	12798
4.87400	12790
4.87467	12782
4.87533	12774
4.87600	12766
4.87667	12758
4.87733	12750
4.87800	12742
4.87867	12734
4.87933	12727
4.88000	12719
4.88067	12711
4.88133	12703
4.88200	12695
4.88267	12687
4.88333	12680
4.88400	12672
4.88467	12664
4.88533	12657
4.88600	12649
4.88667	12641
4.88733	12634
4.88800	12626
4.88867	12619
4.88933	12611
4.89000	12603
4.89067	12595
4.89133	12588
4.89200	12580
4.89267	12572
4.89333	12564
4.89400	12557
4.89467	12549
4.89533	12541
4.89600	12533
4.89667	12525
4.89733	12518
4.89800	12510
4.89867	12502
4.89933	12494
4.90000	12487
4.90067	12479
4.90133	12471
4.90200	12463
4.90267	12456
4.90333	12448
4.90400	12440
4.90467	12433
4.90533	12425
4.90600	12418
4.90667	12410
4.90733	12403
4.90800	12396
4.90867	12388
4.90933	12381
4.91000	12374
4.91067	12367
4.91133	12360
4.91200	12352
4.91267	12345
4.91333	12338
4.91400	12332
4.91467	12325
4.91533	12318
4.91600	12311
4.91667	12304
4.91733	12298
4.91800	12291
4.91867	12284
4.91933	12278
4.92000	12271
4.92067	12265
4.92133	12258
4.92200	12252
4.92267	12246
4.92333	12239
4.92400	12233
4.92467	12227
4.92533	12221
4.92600	12215
4.92667	12209
4.92733	12203
4.92800	12198
4.92867	12192
4.92933	12186
4.93000	12180
4.93067	12174
4.93133	12169
4.93200	12163
4.93267	12157
4.93333	12152
4.93400	12146
4.93467	12140
4.93533	12134
4.93600	12129
4.93667	12123
4.93733	12117
4.93800	12112
4.93867	12106
4.93933	12100
4.94000	12095
4.94067	12089
4.94133	12084
4.94200	12078
4.94267	12073
4.94333	12067
4.94400	12062
4.94467	12057
4.94533	12051
4.94600	12046
4.94667	12041
4.94733	12036
4.94800	12030
4.94867	12025
4.94933	12020
4.95000	12015
4.95067	12010
4.95133	12005
4.95200	12000
4.95267	11995
4.95333	11991
4.95400	11986
4.95467	11982
4.95533	11977
4.95600	11973
4.95667	11969
4.95733	11964
4.95800	11960
4.95867	11956
4.95933	11952
4.96000	11948
4.96067	11945
4.96133	11941
4.96200	11937
4.96267	11934
4.96333	11930
4.96400	11927
4.96467	11924
4.96533	11920
4.96600	11917
4.96667	11914
4.96733	11911
4.96800	11908
4.96867	11906
4.96933	11903
4.97000	11900
4.97067	11897
4.97133	11894
4.97200	11892
4.97267	11889
4.97333	11886
4.97400	11884
4.97467	11881
4.97533	11879
4.97600	11876
4.97667	11874
4.97733	11871
4.97800	11869
4.97867	11866
4.97933	11864
4.98000	11862
4.98067	11859
4.98133	11857
4.98200	11855
4.98267	11853
4.98333	11850
4.98400	11848
4.98467	11846
4.98533	11845
4.98600	11843
4.98667	11841
4.98733	11839
4.98800	11837
4.98867	11836
4.98933	11834
4.99000	11833
4.99067	11831
4.99133	11830
4.99200	11828
4.99267	11827
4.99333	11825
4.99400	11824
4.99467	11823
4.99533	11821
4.99600	11820
4.99667	11819
4.99733	11817
4.99800	11816
4.99867	11814
4.99933	11813
5.00000	11812
5.00067	11810
5.00133	11809
5.00200	11807
5.00267	11805
5.00333	11804
5.00400	11802
5.00467	11800
5.00533	11799
5.00600	11797
5.00667	11795
5.00733	11793
5.00800	11791
5.00867	11788
5.00933	11786
5.01000	11784
5.01067	11781
5.01133	11779
5.01200	11776
5.01267	11773
5.01333	11770
5.01400	11767
5.01467	11764
5.01533	11761
5.01600	11758
5.01667	11754
5.01733	11751
5.01800	11747
5.01867	11743
5.01933	11739
5.02000	11736
5.02067	11732
5.02133	11728
5.02200	11723
5.02267	11719
5.02333	11715
5.02400	11710
5.02467	11706
5.02533	11701
5.02600	11696
5.02667	11692
5.02733	11687
5.02800	11681
5.02867	11676
5.02933	11671
5.03000	11666
5.03067	11660
5.03133	11654
5.03200	11649
5.03267	11643
5.03333	11637
5.03400	11631
5.03467	11625
5.03533	11619
5.03600	11612
5.03667	11606
5.03733	11600
5.03800	11593
5.03867	11587
5.03933	11581
5.04000	11574
5.04067	11568
5.04133	11561
5.04200	11554
5.04267	11548
5.04333	11541
5.04400	11534
5.04467	11527
5.04533	11520
5.04600	11514
5.04667	11507
5.04733	11499
5.04800	11492
5.04867	11485
5.04933	11478
5.05000	11471
5.05067	11463
5.05133	11456
5.05200	11449
5.05267	11441
5.05333	11434
5.05400	11426
5.05467	11419
5.05533	11411
5.05600	11404
5.05667	11396
5.05733	11389
5.05800	11381
5.05867	11374
5.05933	11366
5.06000	11358
5.06067	11351
5.06133	11343
5.06200	11335
5.06267	11328
5.06333	11320
5.06400	11313
5.06467	11305
5.06533	11297
5.06600	11290
5.06667	11282
5.06733	11275
5.06800	11267
5.06867	11259
5.06933	11252
5.07000	11244
5.07067	11237
5.07133	11229
5.07200	11222
5.07267	11214
5.07333	11207
5.07400	11200
5.07467	11192
5.07533	11185
5.07600	11178
5.07667	11170
5.07733	11163
5.07800	11156
5.07867	11149
5.07933	11142
5.08000	11135
5.08067	11128
5.08133	11121
5.08200	11114
5.08267	11108
5.08333	11101
5.08400	11095
5.08467	11088
5.08533	11082
5.08600	11076
5.08667	11069
5.08733	11063
5.08800	11057
5.08867	11051
5.08933	11045
5.09000	11040
5.09067	11034
5.09133	11028
5.09200	11022
5.09267	11017
5.09333	11011
5.09400	11006
5.09467	11001
5.09533	10996
5.09600	10990
5.09667	10985
5.09733	10980
5.09800	10975
5.09867	10970
5.09933	10965
5.10000	10960
5.10067	10955
5.10133	10950
5.10200	10945
5.10267	10941
5.10333	10936
5.10400	10931
5.10467	10926
5.10533	10922
5.10600	10917
5.10667	10913
5.10733	10908
5.10800	10904
5.10867	10900
5.10933	10895
5.11000	10891
5.11067	10887
5.11133	10883
5.11200	10880
5.11267	10876
5.11333	10872
5.11400	10868
5.11467	10865
5.11533	10861
5.11600	10858
5.11667	10855
5.11733	10851
5.11800	10848
5.11867	10845
5.11933	10842
5.12000	10839
5.12067	10836
5.12133	10834
5.12200	10831
5.12267	10828
5.12333	10826
5.12400	10823
5.12467	10821
5.12533	10819
5.12600	10817
5.12667	10814
5.12733	10812
5.12800	10811
5.12867	10809
5.12933	10807
5.13000	10806
5.13067	10804
5.13133	10803
5.13200	10802
5.13267	10801
5.13333	10800
5.13400	10800
5.13467	10799
5.13533	10799
5.13600	10799
5.13667	10799
5.13733	10799
5.13800	10800
5.13867	10800
5.13933	10801
5.14000	10802
5.14067	10803
5.14133	10805
5.14200	10806
5.14267	10808
5.14333	10809
5.14400	10811
5.14467	10813
5.14533	10815
5.14600	10818
5.14667	10820
5.14733	10823
5.14800	10826
5.14867	10829
5.14933	10832
5.15000	10836
5.15067	10839
5.15133	10843
5.15200	10847
5.15267	10852
5.15333	10856
5.15400	10861
5.15467	10866
5.15533	10871
5.15600	10876
5.15667	10882
5.15733	10888
5.15800	10894
5.15867	10900
5.15933	10906
5.16000	10913
5.16067	10920
5.16133	10927
5.16200	10934
5.16267	10941
5.16333	10949
5.16400	10957
5.16467	10965
5.16533	10973
5.16600	10981
5.16667	10989
5.16733	10998
5.16800	11007
5.16867	11016
5.16933	11025
5.17000	11035
5.17067	11044
5.17133	11054
5.17200	11064
5.17267	11074
5.17333	11085
5.17400	11095
5.17467	11106
5.17533	11116
5.17600	11127
5.17667	11138
5.17733	11149
5.17800	11161
5.17867	11172
5.17933	11183
5.18000	11195
5.18067	11206
5.18133	11218
5.18200	11230
5.18267	11242
5.18333	11254
5.18400	11266
5.18467	11279
5.18533	11291
5.18600	11303
5.18667	11315
5.18733	11327
5.18800	11340
5.18867	11352
5.18933	11364
5.19000	11377
5.19067	11389
5.19133	11401
5.19200	11414
5.19267	11426
5.19333	11438
5.19400	11451
5.19467	11463
5.19533	11475
5.19600	11488
5.19667	11500
5.19733	11512
5.19800	11524
5.19867	11536
5.19933	11548
5.20000	11560
5.20067	11572
5.20133	11583
5.20200	11595
5.20267	11606
5.20333	11618
5.20400	11629
5.20467	11640
5.20533	11651
5.20600	11661
5.20667	11672
5.20733	11683
5.20800	11693
5.20867	11703
5.20933	11713
5.21000	11723
5.21067	11733
5.21133	11742
5.21200	11752
5.21267	11761
5.21333	11770
5.21400	11778
5.21467	11786
5.21533	11794
5.21600	11802
5.21667	11810
5.21733	11817
5.21800	11824
5.21867	11831
5.21933	11837
5.22000	11843
5.22067	11849
5.22133	11854
5.22200	11860
5.22267	11865
5.22333	11869
5.22400	11874
5.22467	11878
5.22533	11881
5.22600	11885
5.22667	11888
5.22733	11891
5.22800	11894
5.22867	11896
5.22933	11898
5.23000	11899
5.23067	11901
5.23133	11902
5.23200	11903
5.23267	11903
5.23333	11903
5.23400	11903
5.23467	11902
5.23533	11902
5.23600	11900
5.23667	11899
5.23733	11897
5.23800	11895
5.23867	11893
5.23933	11890
5.24000	11887
5.24067	11884
5.24133	11880
5.24200	11877
5.24267	11872
5.24333	11868
5.24400	11863
5.24467	11858
5.24533	11853
5.24600	11848
5.24667	11842
5.24733	11836
5.24800	11829
5.24867	11823
5.24933	11816
5.25000	11809
5.25067	11802
5.25133	11794
5.25200	11786
5.25267	11778
5.25333	11770
5.25400	11761
5.25467	11753
5.25533	11744
5.25600	11735
5.25667	11725
5.25733	11716
5.25800	11706
5.25867	11696
5.25933	11685
5.26000	11675
5.26067	11665
5.26133	11654
5.26200	11643
5.26267	11632
5.26333	11621
5.26400	11609
5.26467	11598
5.26533	11586
5.26600	11575
5.26667	11563
5.26733	11551
5.26800	11539
5.26867	11527
5.26933	11514
5.27000	11502
5.27067	11489
5.27133	11476
5.27200	11464
5.27267	11451
5.27333	11438
5.27400	11425
5.27467	11412
5.27533	11399
5.27600	11386
5.27667	11372
5.27733	11359
5.27800	11346
5.27867	11333
5.27933	11319
5.28000	11306
5.28067	11292
5.28133	11279
5.28200	11266
5.28267	11252
5.28333	11239
5.28400	11225
5.28467	11212
5.28533	11199
5.28600	11185
5.28667	11172
5.28733	11159
5.28800	11146
5.28867	11133
5.28933	11120
5.29000	11107
5.29067	11095
5.29133	11082
5.29200	11070
5.29267	11057
5.29333	11045
5.29400	11033
5.29467	11021
5.29533	11009
5.29600	10997
5.29667	10985
5.29733	10974
5.29800	10962
5.29867	10951
5.29933	10939
5.30000	10928
5.30067	10917
5.30133	10906
5.30200	10895
5.30267	10885
5.30333	10874
5.30400	10864
5.30467	10854
5.30533	10844
5.30600	10834
5.30667	10825
5.30733	10815
5.30800	10806
5.30867	10797
5.30933	10788
5.31000	10780
5.31067	10771
5.31133	10763
5.31200	10755
5.31267	10747
5.31333	10739
5.31400	10732
5.31467	10724
5.31533	10717
5.31600	10710
5.31667	10702
5.31733	10696
5.31800	10689
5.31867	10682
5.31933	10676
5.32000	10670
5.32067	10664
5.32133	10658
5.32200	10652
5.32267	10646
5.32333	10641
5.32400	10635
5.32467	10630
5.32533	10625
5.32600	10621
5.32667	10616
5.32733	10611
5.32800	10607
5.32867	10603
5.32933	10599
5.33000	10596
5.33067	10592
5.33133	10589
5.33200	10586
5.33267	10583
5.33333	10580
5.33400	10578
5.33467	10576
5.33533	10574
5.33600	10572
5.33667	10571
5.33733	10569
5.33800	10568
5.33867	10567
5.33933	10566
5.34000	10565
5.34067	10565
5.34133	10564
5.34200	10564
5.34267	10564
5.34333	10564
5.34400	10564
5.34467	10565
5.34533	10565
5.34600	10566
5.34667	10567
5.34733	10568
5.34800	10569
5.34867	10570
5.34933	10571
5.35000	10573
5.35067	10575
5.35133	10577
5.35200	10578
5.35267	10581
5.35333	10583
5.35400	10585
5.35467	10587
5.35533	10590
5.35600	10593
5.35667	10596
5.35733	10599
5.35800	10602
5.35867	10605
5.35933	10608
5.36000	10612
5.36067	10615
5.36133	10619
5.36200	10623
5.36267	10626
5.36333	10630
5.36400	10635
5.36467	10639
5.36533	10643
5.36600	10648
5.36667	10652
5.36733	10657
5.36800	10662
5.36867	10667
5.36933	10672
5.37000	10677
5.37067	10682
5.37133	10688
5.37200	10693
5.37267	10699
5.37333	10704
5.37400	10710
5.37467	10716
5.37533	10721
5.37600	10727
5.37667	10733
5.37733	10739
5.37800	10745
5.37867	10751
5.37933	10757
5.38000	10763
5.38067	10769
5.38133	10775
5.38200	10782
5.38267	10788
5.38333	10794
5.38400	10800
5.38467	10806
5.38533	10812
5.38600	10818
5.38667	10824
5.38733	10830
5.38800	10836
5.38867	10842
5.38933	10848
5.39000	10854
5.39067	10859
5.39133	10865
5.39200	10870
5.39267	10876
5.39333	10881
5.39400	10886
5.39467	10891
5.39533	10897
5.39600	10901
5.39667	10906
5.39733	10911
5.39800	10916
5.39867	10920
5.39933	10925
5.40000	10929
5.40067	10933
5.40133	10937
5.40200	10942
5.40267	10945
5.40333	10949
5.40400	10953
5.40467	10957
5.40533	10960
5.40600	10963
5.40667	10967
5.40733	10970
5.40800	10973
5.40867	10975
5.40933	10978
5.41000	10981
5.41067	10983
5.41133	10985
5.41200	10988
5.41267	10990
5.41333	10992
5.41400	10993
5.41467	10995
5.41533	10996
5.41600	10997
5.41667	10999
5.41733	10999
5.41800	11000
5.41867	11001
5.41933	11001
5.42000	11002
5.42067	11002
5.42133	11002
5.42200	11001
5.42267	11001
5.42333	11001
5.42400	11000
5.42467	10999
5.42533	10998
5.42600	10997
5.42667	10995
5.42733	10994
5.42800	10992
5.42867	10990
5.42933	10988
5.43000	10986
5.43067	10983
5.43133	10980
5.43200	10977
5.43267	10974
5.43333	10971
5.43400	10967
5.43467	10964
5.43533	10960
5.43600	10956
5.43667	10951
5.43733	10947
5.43800	10942
5.43867	10938
5.43933	10933
5.44000	10927
5.44067	10922
5.44133	10917
5.44200	10911
5.44267	10905
5.44333	10899
5.44400	10893
5.44467	10887
5.44533	10880
5.44600	10873
5.44667	10867
5.44733	10860
5.44800	10853
5.44867	10846
5.44933	10838
5.45000	10831
5.45067	10823
5.45133	10815
5.45200	10807
5.45267	10799
5.45333	10790
5.45400	10782
5.45467	10773
5.45533	10765
5.45600	10756
5.45667	10747
5.45733	10738
5.45800	10729
5.45867	10720
5.45933	10711
5.46000	10702
5.46067	10692
5.46133	10683
5.46200	10673
5.46267	10663
5.46333	10654
5.46400	10644
5.46467	10634
5.46533	10624
5.46600	10613
5.46667	10603
5.46733	10593
5.46800	10582
5.46867	10572
5.46933	10562
5.47000	10551
5.47067	10541
5.47133	10530
5.47200	10520
5.47267	10509
5.47333	10499
5.47400	10488
5.47467	10478
5.47533	10467
5.47600	10457
5.47667	10446
5.47733	10435
5.47800	10425
5.47867	10414
5.47933	10404
5.48000	10394
5.48067	10383
5.48133	10373
5.48200	10362
5.48267	10352
5.48333	10341
5.48400	10331
5.48467	10321
5.48533	10310
5.48600	10300
5.48667	10290
5.48733	10279
5.48800	10269
5.48867	10259
5.48933	10248
5.49000	10238
5.49067	10228
5.49133	10218
5.49200	10208
5.49267	10197
5.49333	10187
5.49400	10177
5.49467	10167
5.49533	10157
5.49600	10147
5.49667	10137
5.49733	10127
5.49800	10117
5.49867	10107
5.49933	10097
5.50000	10088
5.50067	10078
5.50133	10068
5.50200	10058
5.50267	10049
5.50333	10039
5.50400	10030
5.50467	10020
5.50533	10011
5.50600	10002
5.50667	9992
5.50733	9983
5.50800	9974
5.50867	9965
5.50933	9956
5.51000	9948
5.51067	9939
5.51133	9930
5.51200	9922
5.51267	9914
5.51333	9905
5.51400	9897
5.51467	9889
5.51533	9881
5.51600	9874
5.51667	9866
5.51733	9858
5.51800	9851
5.51867	9844
5.51933	9837
5.52000	9830
5.52067	9823
5.52133	9816
5.52200	9809
5.52267	9803
5.52333	9796
5.52400	9789
5.52467	9783
5.52533	9777
5.52600	9771
5.52667	9764
5.52733	9758
5.52800	9752
5.52867	9746
5.52933	9741
5.53000	9735
5.53067	9729
5.53133	9723
5.53200	9718
5.53267	9712
5.53333	9707
5.53400	9701
5.53467	9696
5.53533	9690
5.53600	9685
5.53667	9680
5.53733	9675
5.53800	9670
5.53867	9665
5.53933	9660
5.54000	9655
5.54067	9650
5.54133	9645
5.54200	9641
5.54267	9636
5.54333	9632
5.54400	9628
5.54467	9623
5.54533	9619
5.54600	9615
5.54667	9611
5.54733	9607
5.54800	9603
5.54867	9599
5.54933	9595
5.55000	9591
5.55067	9588
5.55133	9584
5.55200	9581
5.55267	9577
5.55333	9574
5.55400	9570
5.55467	9567
5.55533	9564
5.55600	9561
5.55667	9558
5.55733	9555
5.55800	9552
5.55867	9550
5.55933	9547
5.56000	9544
5.56067	9542
5.56133	9539
5.56200	9537
5.56267	9534
5.56333	9532
5.56400	9530
5.56467	9528
5.56533	9526
5.56600	9523
5.56667	9522
5.56733	9520
5.56800	9518
5.56867	9516
5.56933	9514
5.57000	9513
5.57067	9511
5.57133	9510
5.57200	9508
5.57267	9507
5.57333	9505
5.57400	9504
5.57467	9503
5.57533	9502
5.57600	9501
5.57667	9500
5.57733	9499
5.57800	9498
5.57867	9497
5.57933	9496
5.58000	9496
5.58067	9495
5.58133	9495
5.58200	9494
5.58267	9494
5.58333	9493
5.58400	9493
5.58467	9492
5.58533	9492
5.58600	9492
5.58667	9492
5.58733	9491
5.58800	9491
5.58867	9491
5.58933	9491
5.59000	9491
5.59067	9491
5.59133	9491
5.59200	9490
5.59267	9490
5.59333	9490
5.59400	9490
5.59467	9490
5.59533	9491
5.59600	9491
5.59667	9491
5.59733	9491
5.59800	9491
5.59867	9491
5.59933	9491
5.60000	9491
5.60067	9491
5.60133	9491
5.60200	9491
5.60267	9491
5.60333	9491
5.60400	9491
5.60467	9491
5.60533	9491
5.60600	9491
5.60667	9491
5.60733	9491
5.60800	9491
5.60867	9491
5.60933	9490
5.61000	9490
5.61067	9490
5.61133	9490
5.61200	9490
5.61267	9489
5.61333	9489
5.61400	9488
5.61467	9488
5.61533	9487
5.61600	9487
5.61667	9486
5.61733	9485
5.61800	9485
5.61867	9484
5.61933	9483
5.62000	9482
5.62067	9481
5.62133	9480
5.62200	9479
5.62267	9478
5.62333	9477
5.62400	9475
5.62467	9474
5.62533	9473
5.62600	9472
5.62667	9470
5.62733	9469
5.62800	9467
5.62867	9466
5.62933	9464
5.63000	9463
5.63067	9461
5.63133	9459
5.63200	9458
5.63267	9456
5.63333	9454
5.63400	9452
5.63467	9451
5.63533	9449
5.63600	9447
5.63667	9445
5.63733	9443
5.63800	9441
5.63867	9439
5.63933	9437
5.64000	9435
5.64067	9433
5.64133	9430
5.64200	9428
5.64267	9426
5.64333	9423
5.64400	9421
5.64467	9419
5.64533	9416
5.64600	9414
5.64667	9411
5.64733	9409
5.64800	9406
5.64867	9403
5.64933	9401
5.65000	9398
5.65067	9396
5.65133	9393
5.65200	9391
5.65267	9388
5.65333	9386
5.65400	9383
5.65467	9381
5.65533	9378
5.65600	9375
5.65667	9373
5.65733	9370
5.65800	9367
5.65867	9364
5.65933	9361
5.66000	9358
5.66067	9355
5.66133	9352
5.66200	9349
5.66267	9345
5.66333	9342
5.66400	9339
5.66467	9336
5.66533	9332
5.66600	9329
5.66667	9325
5.66733	9322
5.66800	9319
5.66867	9315
5.66933	9312
5.67000	9308
5.67067	9304
5.67133	9301
5.67200	9297
5.67267	9294
5.67333	9290
5.67400	9286
5.67467	9283
5.67533	9279
5.67600	9275
5.67667	9272
5.67733	9268
5.67800	9264
5.67867	9260
5.67933	9256
5.68000	9253
5.68067	9249
5.68133	9245
5.68200	9241
5.68267	9237
5.68333	9233
5.68400	9230
5.68467	9226
5.68533	9222
5.68600	9218
5.68667	9214
5.68733	9210
5.68800	9207
5.68867	9203
5.68933	9199
5.69000	9195
5.69067	9191
5.69133	9187
5.69200	9183
5.69267	9179
5.69333	9175
5.69400	9171
5.69467	9167
5.69533	9163
5.69600	9159
5.69667	9155
5.69733	9152
5.69800	9148
5.69867	9144
5.69933	9140
5.70000	9136
5.70067	9132
5.70133	9129
5.70200	9125
5.70267	9121
5.70333	9118
5.70400	9114
5.70467	9110
5.70533	9107
5.70600	9103
5.70667	9100
5.70733	9097
5.70800	9093
5.70867	9090
5.70933	9087
5.71000	9084
5.71067	9081
5.71133	9078
5.71200	9075
5.71267	9072
5.71333	9069
5.71400	9066
5.71467	9063
5.71533	9060
5.71600	9058
5.71667	9055
5.71733	9052
5.71800	9050
5.71867	9047
5.71933	9045
5.72000	9042
5.72067	9040
5.72133	9038
5.72200	9035
5.72267	9033
5.72333	9031
5.72400	9029
5.72467	9027
5.72533	9025
5.72600	9023
5.72667	9021
5.72733	9019
5.72800	9018
5.72867	9016
5.72933	9015
5.73000	9013
5.73067	9012
5.73133	9010
5.73200	9009
5.73267	9008
5.73333	9007
5.73400	9006
5.73467	9005
5.73533	9003
5.73600	9002
5.73667	9001
5.73733	9000
5.73800	8999
5.73867	8998
5.73933	8998
5.74000	8997
5.74067	8996
5.74133	8995
5.74200	8995
5.74267	8994
5.74333	8994
5.74400	8993
5.74467	8993
5.74533	8993
5.74600	8992
5.74667	8992
5.74733	8992
5.74800	8992
5.74867	8992
5.74933	8992
5.75000	8992
5.75067	8993
5.75133	8993
5.75200	8993
5.75267	8994
5.75333	8994
5.75400	8995
5.75467	8996
5.75533	8997
5.75600	8998
5.75667	8999
5.75733	9000
5.75800	9001
5.75867	9003
5.75933	9004
5.76000	9006
5.76067	9008
5.76133	9009
5.76200	9011
5.76267	9014
5.76333	9016
5.76400	9018
5.76467	9021
5.76533	9023
5.76600	9026
5.76667	9029
5.76733	9033
5.76800	9036
5.76867	9039
5.76933	9043
5.77000	9047
5.77067	9051
5.77133	9056
5.77200	9060
5.77267	9065
5.77333	9069
5.77400	9074
5.77467	9079
5.77533	9085
5.77600	9090
5.77667	9096
5.77733	9102
5.77800	9108
5.77867	9114
5.77933	9121
5.78000	9127
5.78067	9134
5.78133	9142
5.78200	9149
5.78267	9157
5.78333	9165
5.78400	9173
5.78467	9181
5.78533	9189
5.78600	9198
5.78667	9207
5.78733	9216
5.78800	9226
5.78867	9236
5.78933	9246
5.79000	9256
5.79067	9266
5.79133	9277
5.79200	9287
5.79267	9298
5.79333	9310
5.79400	9321
5.79467	9332
5.79533	9344
5.79600	9356
5.79667	9369
5.79733	9381
5.79800	9394
5.79867	9406
5.79933	9420
5.80000	9433
5.80067	9446
5.80133	9460
5.80200	9474
5.80267	9488
5.80333	9502
5.80400	9517
5.80467	9531
5.80533	9546
5.80600	9561
5.80667	9577
5.80733	9592
5.80800	9608
5.80867	9624
5.80933	9640
5.81000	9656
5.81067	9672
5.81133	9689
5.81200	9706
5.81267	9723
5.81333	9740
5.81400	9757
5.81467	9775
5.81533	9792
5.81600	9810
5.81667	9828
5.81733	9846
5.81800	9865
5.81867	9883
5.81933	9902
5.82000	9921
5.82067	9939
5.82133	9958
5.82200	9977
5.82267	9996
5.82333	10016
5.82400	10035
5.82467	10054
5.82533	10074
5.82600	10093
5.82667	10113
5.82733	10132
5.82800	10152
5.82867	10171
5.82933	10191
5.83000	10211
5.83067	10230
5.83133	10250
5.83200	10269
5.83267	10289
5.83333	10308
5.83400	10328
5.83467	10347
5.83533	10367
5.83600	10386
5.83667	10406
5.83733	10425
5.83800	10444
5.83867	10464
5.83933	10483
5.84000	10503
5.84067	10522
5.84133	10541
5.84200	10561
5.84267	10580
5.84333	10599
5.84400	10618
5.84467	10637
5.84533	10656
5.84600	10675
5.84667	10694
5.84733	10713
5.84800	10732
5.84867	10750
5.84933	10769
5.85000	10787
5.85067	10805
5.85133	10823
5.85200	10841
5.85267	10859
5.85333	10877
5.85400	10894
5.85467	10911
5.85533	10928
5.85600	10945
5.85667	10962
5.85733	10978
5.85800	10994
5.85867	11010
5.85933	11026
5.86000	11042
5.86067	11057
5.86133	11072
5.86200	11087
5.86267	11102
5.86333	11117
5.86400	11131
5.86467	11145
5.86533	11159
5.86600	11172
5.86667	11185
5.86733	11198
5.86800	11211
5.86867	11223
5.86933	11235
5.87000	11247
5.87067	11258
5.87133	11269
5.87200	11280
5.87267	11291
5.87333	11301
5.87400	11311
5.87467	11321
5.87533	11330
5.87600	11340
5.87667	11348
5.87733	11357
5.87800	11365
5.87867	11373
5.87933	11381
5.88000	11388
5.88067	11395
5.88133	11402
5.88200	11409
5.88267	11415
5.88333	11421
5.88400	11427
5.88467	11432
5.88533	11437
5.88600	11442
5.88667	11447
5.88733	11451
5.88800	11455
5.88867	11459
5.88933	11462
5.89000	11466
5.89067	11468
5.89133	11471
5.89200	11473
5.89267	11475
5.89333	11477
5.89400	11479
5.89467	11480
5.89533	11481
5.89600	11482
5.89667	11483
5.89733	11483
5.89800	11483
5.89867	11483
5.89933	11483
5.90000	11482
5.90067	11481
5.90133	11480
5.90200	11479
5.90267	11477
5.90333	11476
5.90400	11473
5.90467	11471
5.90533	11469
5.90600	11466
5.90667	11463
5.90733	11459
5.90800	11456
5.90867	11452
5.90933	11448
5.91000	11444
5.91067	11439
5.91133	11434
5.91200	11429
5.91267	11424
5.91333	11419
5.91400	11413
5.91467	11408
5.91533	11402
5.91600	11396
5.91667	11389
5.91733	11383
5.91800	11377
5.91867	11370
5.91933	11363
5.92000	11356
5.92067	11349
5.92133	11341
5.92200	11334
5.92267	11326
5.92333	11318
5.92400	11310
5.92467	11302
5.92533	11294
5.92600	11285
5.92667	11277
5.92733	11268
5.92800	11260
5.92867	11251
5.92933	11242
5.93000	11233
5.93067	11223
5.93133	11214
5.93200	11205
5.93267	11195
5.93333	11186
5.93400	11176
5.93467	11166
5.93533	11157
5.93600	11147
5.93667	11137
5.93733	11127
5.93800	11118
5.93867	11108
5.93933	11098
5.94000	11088
5.94067	11078
5.94133	11068
5.94200	11058
5.94267	11048
5.94333	11038
5.94400	11028
5.94467	11018
5.94533	11008
5.94600	10998
5.94667	10988
5.94733	10978
5.94800	10968
5.94867	10958
5.94933	10949
5.95000	10939
5.95067	10929
5.95133	10919
5.95200	10909
5.95267	10899
5.95333	10889
5.95400	10879
5.95467	10870
5.95533	10860
5.95600	10850
5.95667	10840
5.95733	10830
5.95800	10820
5.95867	10811
5.95933	10801
5.96000	10791
5.96067	10781
5.96133	10771
5.96200	10761
5.96267	10752
5.96333	10742
5.96400	10732
5.96467	10722
5.96533	10712
5.96600	10702
5.96667	10692
5.96733	10683
5.96800	10673
5.96867	10663
5.96933	10653
5.97000	10644
5.97067	10634
5.97133	10625
5.97200	10615
5.97267	10606
5.97333	10596
5.97400	10587
5.97467	10578
5.97533	10569
5.97600	10559
5.97667	10550
5.97733	10541
5.97800	10532
5.97867	10523
5.97933	10514
5.98000	10505
5.98067	10496
5.98133	10488
5.98200	10479
5.98267	10470
5.98333	10462
5.98400	10453
5.98467	10445
5.98533	10436
5.98600	10428
5.98667	10419
5.98733	10411
5.98800	10403
5.98867	10395
5.98933	10387
5.99000	10378
5.99067	10370
5.99133	10362
5.99200	10355
5.99267	10347
5.99333	10339
5.99400	10331
5.99467	10323
5.99533	10315
5.99600	10308
5.99667	10300
5.99733	10293
5.99800	10285
5.99867	10277
5.99933	10270
6.00000	10263
6.00067	10255
6.00133	10248
6.00200	10240
6.00267	10233
6.00333	10226
6.00400	10219
6.00467	10211
6.00533	10204
6.00600	10197
6.00667	10190
6.00733	10183
6.00800	10176
6.00867	10169
6.00933	10163
6.01000	10156
6.01067	10149
6.01133	10143
6.01200	10136
6.01267	10129
6.01333	10123
6.01400	10117
6.01467	10110
6.01533	10104
6.01600	10098
6.01667	10092
6.01733	10086
6.01800	10080
6.01867	10074
6.01933	10068
6.02000	10062
6.02067	10056
6.02133	10050
6.02200	10044
6.02267	10039
6.02333	10033
6.02400	10027
6.02467	10022
6.02533	10016
6.02600	10011
6.02667	10005
6.02733	10000
6.02800	9994
6.02867	9989
6.02933	9984
6.03000	9978
6.03067	9973
6.03133	9968
6.03200	9963
6.03267	9958
6.03333	9952
6.03400	9947
6.03467	9942
6.03533	9937
6.03600	9932
6.03667	9927
6.03733	9922
6.03800	9918
6.03867	9913
6.03933	9908
6.04000	9903
6.04067	9898
6.04133	9893
6.04200	9888
6.04267	9883
6.04333	9879
6.04400	9874
6.04467	9869
6.04533	9864
6.04600	9860
6.04667	9855
6.04733	9850
6.04800	9846
6.04867	9841
6.04933	9837
6.05000	9832
6.05067	9827
6.05133	9823
6.05200	9818
6.05267	9814
6.05333	9809
6.05400	9805
6.05467	9801
6.05533	9796
6.05600	9792
6.05667	9788
6.05733	9784
6.05800	9780
6.05867	9776
6.05933	9772
6.06000	9767
6.06067	9764
6.06133	9760
6.06200	9756
6.06267	9752
6.06333	9748
6.06400	9745
6.06467	9741
6.06533	9737
6.06600	9733
6.06667	9730
6.06733	9726
6.06800	9722
6.06867	9718
6.06933	9715
6.07000	9711
6.07067	9707
6.07133	9704
6.07200	9700
6.07267	9697
6.07333	9693
6.07400	9689
6.07467	9686
6.07533	9682
6.07600	9679
6.07667	9675
6.07733	9672
6.07800	9669
6.07867	9665
6.07933	9662
6.08000	9658
6.08067	9655
6.08133	9651
6.08200	9648
6.08267	9644
6.08333	9641
6.08400	9638
6.08467	9634
6.08533	9631
6.08600	9628
6.08667	9624
6.08733	9621
6.08800	9618
6.08867	9614
6.08933	9611
6.09000	9608
6.09067	9604
6.09133	9601
6.09200	9598
6.09267	9594
6.09333	9591
6.09400	9588
6.09467	9585
6.09533	9581
6.09600	9578
6.09667	9575
6.09733	9572
6.09800	9569
6.09867	9565
6.09933	9562
6.10000	9559
6.10067	9556
6.10133	9553
6.10200	9550
6.10267	9546
6.10333	9543
6.10400	9540
6.10467	9537
6.10533	9534
6.10600	9530
6.10667	9527
6.10733	9524
6.10800	9521
6.10867	9517
6.10933	9514
6.11000	9511
6.11067	9508
6.11133	9504
6.11200	9501
6.11267	9498
6.11333	9495
6.11400	9491
6.11467	9488
6.11533	9485
6.11600	9482
6.11667	9479
6.11733	9475
6.11800	9472
6.11867	9469
6.11933	9466
6.12000	9463
6.12067	9460
6.12133	9457
6.12200	9454
6.12267	9451
6.12333	9448
6.12400	9445
6.12467	9442
6.12533	9439
6.12600	9436
6.12667	9433
6.12733	9430
6.12800	9427
6.12867	9424
6.12933	9421
6.13000	9417
6.13067	9414
6.13133	9411
6.13200	9408
6.13267	9405
6.13333	9401
6.13400	9398
6.13467	9395
6.13533	9392
6.13600	9389
6.13667	9386
6.13733	9382
6.13800	9379
6.13867	9376
6.13933	9373
6.14000	9370
6.14067	9367
6.14133	9364
6.14200	9361
6.14267	9358
6.14333	9355
6.14400	9352
6.14467	9349
6.14533	9346
6.14600	9343
6.14667	9340
6.14733	9336
6.14800	9333
6.14867	9330
6.14933	9327
6.15000	9324
6.15067	9321
6.15133	9318
6.15200	9314
6.15267	9311
6.15333	9308
6.15400	9305
6.15467	9301
6.15533	9298
6.15600	9295
6.15667	9292
6.15733	9288
6.15800	9285
6.15867	9282
6.15933	9279
6.16000	9275
6.16067	9272
6.16133	9269
6.16200	9266
6.16267	9262
6.16333	9259
6.16400	9256
6.16467	9253
6.16533	9250
6.16600	9246
6.16667	9243
6.16733	9240
6.16800	9237
6.16867	9234
6.16933	9230
6.17000	9227
6.17067	9224
6.17133	9221
6.17200	9218
6.17267	9214
6.17333	9211
6.17400	9208
6.17467	9205
6.17533	9202
6.17600	9199
6.17667	9195
6.17733	9192
6.17800	9189
6.17867	9186
6.17933	9183
6.18000	9180
6.18067	9176
6.18133	9173
6.18200	9170
6.18267	9167
6.18333	9164
6.18400	9161
6.18467	9158
6.18533	9155
6.18600	9152
6.18667	9149
6.18733	9146
6.18800	9143
6.18867	9140
6.18933	9137
6.19000	9134
6.19067	9131
6.19133	9128
6.19200	9126
6.19267	9123
6.19333	9120
6.19400	9117
6.19467	9114
6.19533	9111
6.19600	9108
6.19667	9105
6.19733	9103
6.19800	9100
6.19867	9097
6.19933	9094
6.20000	9092
6.20067	9089
6.20133	9086
6.20200	9084
6.20267	9081
6.20333	9079
6.20400	9077
6.20467	9074
6.20533	9072
6.20600	9070
6.20667	9067
6.20733	9065
6.20800	9063
6.20867	9061
6.20933	9059
6.21000	9057
6.21067	9054
6.21133	9052
6.21200	9050
6.21267	9048
6.21333	9046
6.21400	9044
6.21467	9042
6.21533	9040
6.21600	9038
6.21667	9036
6.21733	9034
6.21800	9032
6.21867	9030
6.21933	9028
6.22000	9026
6.22067	9024
6.22133	9022
6.22200	9020
6.22267	9018
6.22333	9017
6.22400	9015
6.22467	9013
6.22533	9012
6.22600	9010
6.22667	9008
6.22733	9007
6.22800	9005
6.22867	9004
6.22933	9003
6.23000	9001
6.23067	9000
6.23133	8999
6.23200	8997
6.23267	8996
6.23333	8995
6.23400	8994
6.23467	8993
6.23533	8992
6.23600	8991
6.23667	8990
6.23733	8989
6.23800	8988
6.23867	8987
6.23933	8986
6.24000	8986
6.24067	8985
6.24133	8984
6.24200	8983
6.24267	8983
6.24333	8982
6.24400	8981
6.24467	8980
6.24533	8980
6.24600	8979
6.24667	8978
6.24733	8977
6.24800	8977
6.24867	8976
6.24933	8975
6.25000	8974
6.25067	8974
6.25133	8973
6.25200	8972
6.25267	8972
6.25333	8971
6.25400	8970
6.25467	8970
6.25533	8969
6.25600	8969
6.25667	8968
6.25733	8968
6.25800	8967
6.25867	8966
6.25933	8966
6.26000	8965
6.26067	8965
6.26133	8964
6.26200	8964
6.26267	8963
6.26333	8963
6.26400	8962
6.26467	8962
6.26533	8961
6.26600	8961
6.26667	8960
6.26733	8960
6.26800	8959
6.26867	8959
6.26933	8959
6.27000	8958
6.27067	8957
6.27133	8957
6.27200	8956
6.27267	8956
6.27333	8955
6.27400	8955
6.27467	8954
6.27533	8953
6.27600	8953
6.27667	8952
6.27733	8951
6.27800	8950
6.27867	8950
6.27933	8949
6.28000	8948
6.28067	8947
6.28133	8946
6.28200	8946
6.28267	8945
6.28333	8944
6.28400	8943
6.28467	8942
6.28533	8941
6.28600	8940
6.28667	8939
6.28733	8938
6.28800	8937
6.28867	8936
6.28933	8935
6.29000	8934
6.29067	8933
6.29133	8931
6.29200	8930
6.29267	8929
6.29333	8928
6.29400	8927
6.29467	8926
6.29533	8925
6.29600	8924
6.29667	8923
6.29733	8921
6.29800	8920
6.29867	8919
6.29933	8918
6.30000	8917
6.30067	8916
6.30133	8914
6.30200	8913
6.30267	8912
6.30333	8910
6.30400	8909
6.30467	8908
6.30533	8906
6.30600	8905
6.30667	8903
6.30733	8901
6.30800	8900
6.30867	8898
6.30933	8897
6.31000	8895
6.31067	8893
6.31133	8891
6.31200	8890
6.31267	8888
6.31333	8886
6.31400	8884
6.31467	8882
6.31533	8880
6.31600	8878
6.31667	8877
6.31733	8875
6.31800	8873
6.31867	8871
6.31933	8869
6.32000	8867
6.32067	8865
6.32133	8863
6.32200	8861
6.32267	8859
6.32333	8857
6.32400	8855
6.32467	8853
6.32533	8851
6.32600	8848
6.32667	8846
6.32733	8844
6.32800	8842
6.32867	8840
6.32933	8837
6.33000	8835
6.33067	8833
6.33133	8830
6.33200	8828
6.33267	8826
6.33333	8823
6.33400	8821
6.33467	8819
6.33533	8816
6.33600	8814
6.33667	8811
6.33733	8809
6.33800	8806
6.33867	8804
6.33933	8801
6.34000	8799
6.34067	8796
6.34133	8794
6.34200	8791
6.34267	8789
6.34333	8786
6.34400	8784
6.34467	8781
6.34533	8779
6.34600	8777
6.34667	8774
6.34733	8772
6.34800	8770
6.34867	8767
6.34933	8765
6.35000	8762
6.35067	8760
6.35133	8757
6.35200	8755
6.35267	8752
6.35333	8750
6.35400	8747
6.35467	8744
6.35533	8742
6.35600	8739
6.35667	8736
6.35733	8734
6.35800	8731
6.35867	8728
6.35933	8726
6.36000	8723
6.36067	8720
6.36133	8717
6.36200	8714
6.36267	8712
6.36333	8709
6.36400	8706
6.36467	8703
6.36533	8700
6.36600	8697
6.36667	8694
6.36733	8692
6.36800	8688
6.36867	8685
6.36933	8682
6.37000	8679
6.37067	8676
6.37133	8673
6.37200	8670
6.37267	8667
6.37333	8663
6.37400	8660
6.37467	8657
6.37533	8654
6.37600	8650
6.37667	8647
6.37733	8644
6.37800	8641
6.37867	8637
6.37933	8634
6.38000	8631
6.38067	8628
6.38133	8624
6.38200	8621
6.38267	8618
6.38333	8615
6.38400	8612
6.38467	8609
6.38533	8605
6.38600	8602
6.38667	8599
6.38733	8596
6.38800	8593
6.38867	8590
6.38933	8587
6.39000	8584
6.39067	8581
6.39133	8578
6.39200	8575
6.39267	8572
6.39333	8570
6.39400	8567
6.39467	8564
6.39533	8561
6.39600	8558
6.39667	8556
6.39733	8553
6.39800	8550
6.39867	8548
6.39933	8545

