[Header]
Application Name	LabSolutions
Version	5.73
Data File Name	C:\LabSolutions\Data\Project1\stephen\2016-01-04\92.gcd
Output Date	1/5/2016
Output Time	4:51:46 PM

[Configuration]
Instrument Name	WEISSTA-PC-Instrument1
Instrument #	1
Line #	1
# of Detectors	1
Detector ID	DET#2
Detector Name	DFID1
# of Channels	1

[Chromatogram (Ch1)]
Interval(msec)	40
# of Points	9599
Start Time(min)	0.001
End Time(min)	6.399
R.Time (min)	Intensity
0.00067	7
0.00133	7
0.00200	7
0.00267	7
0.00333	7
0.00400	8
0.00467	8
0.00533	8
0.00600	8
0.00667	9
0.00733	9
0.00800	9
0.00867	10
0.00933	10
0.01000	11
0.01067	11
0.01133	11
0.01200	12
0.01267	12
0.01333	12
0.01400	12
0.01467	12
0.01533	12
0.01600	12
0.01667	12
0.01733	12
0.01800	12
0.01867	11
0.01933	10
0.02000	10
0.02067	9
0.02133	8
0.02200	7
0.02267	6
0.02333	5
0.02400	3
0.02467	2
0.02533	1
0.02600	-1
0.02667	-2
0.02733	-4
0.02800	-5
0.02867	-7
0.02933	-8
0.03000	-10
0.03067	-11
0.03133	-13
0.03200	-14
0.03267	-15
0.03333	-17
0.03400	-18
0.03467	-19
0.03533	-20
0.03600	-21
0.03667	-23
0.03733	-24
0.03800	-25
0.03867	-26
0.03933	-27
0.04000	-28
0.04067	-28
0.04133	-29
0.04200	-30
0.04267	-30
0.04333	-31
0.04400	-32
0.04467	-32
0.04533	-33
0.04600	-33
0.04667	-33
0.04733	-34
0.04800	-34
0.04867	-35
0.04933	-35
0.05000	-35
0.05067	-36
0.05133	-36
0.05200	-36
0.05267	-37
0.05333	-37
0.05400	-37
0.05467	-38
0.05533	-38
0.05600	-38
0.05667	-38
0.05733	-39
0.05800	-39
0.05867	-39
0.05933	-39
0.06000	-39
0.06067	-39
0.06133	-40
0.06200	-40
0.06267	-40
0.06333	-40
0.06400	-40
0.06467	-40
0.06533	-40
0.06600	-41
0.06667	-41
0.06733	-41
0.06800	-41
0.06867	-41
0.06933	-41
0.07000	-41
0.07067	-41
0.07133	-41
0.07200	-42
0.07267	-42
0.07333	-42
0.07400	-42
0.07467	-42
0.07533	-42
0.07600	-42
0.07667	-42
0.07733	-42
0.07800	-42
0.07867	-42
0.07933	-42
0.08000	-43
0.08067	-43
0.08133	-43
0.08200	-43
0.08267	-43
0.08333	-43
0.08400	-43
0.08467	-43
0.08533	-42
0.08600	-36
0.08667	-28
0.08733	-9
0.08800	23
0.08867	68
0.08933	139
0.09000	237
0.09067	356
0.09133	529
0.09200	756
0.09267	1031
0.09333	1376
0.09400	1780
0.09467	2233
0.09533	2759
0.09600	3382
0.09667	4061
0.09733	4767
0.09800	5463
0.09867	6163
0.09933	6928
0.10000	7764
0.10067	8637
0.10133	9506
0.10200	10406
0.10267	11357
0.10333	12339
0.10400	13381
0.10467	14442
0.10533	15554
0.10600	16649
0.10667	17704
0.10733	18798
0.10800	19892
0.10867	20955
0.10933	21995
0.11000	23014
0.11067	24027
0.11133	25064
0.11200	26070
0.11267	27013
0.11333	27912
0.11400	28805
0.11467	29657
0.11533	30450
0.11600	31189
0.11667	31863
0.11733	32470
0.11800	33009
0.11867	33513
0.11933	33992
0.12000	34441
0.12067	34831
0.12133	35165
0.12200	35444
0.12267	35668
0.12333	35853
0.12400	36000
0.12467	36119
0.12533	36200
0.12600	36234
0.12667	36229
0.12733	36187
0.12800	36115
0.12867	36028
0.12933	35928
0.13000	35809
0.13067	35687
0.13133	35710
0.13200	36443
0.13267	39568
0.13333	49063
0.13400	73404
0.13467	127972
0.13533	238643
0.13600	440097
0.13667	773033
0.13733	1276899
0.13800	1987541
0.13867	2932606
0.13933	4132855
0.14000	5600876
0.14067	7343026
0.14133	9360384
0.14200	11650947
0.14267	14211074
0.14333	17035443
0.14400	20114919
0.14467	23433542
0.14533	26977369
0.14600	30748579
0.14667	34757286
0.14733	39002848
0.14800	43473781
0.14867	48151921
0.14933	53014264
0.15000	58035476
0.15067	63189787
0.15133	68452956
0.15200	73803066
0.15267	79220250
0.15333	84686379
0.15400	90185176
0.15467	95701623
0.15533	101222033
0.15600	106734049
0.15667	112225651
0.15733	117685577
0.15800	123103500
0.15867	128470055
0.15933	133776833
0.16000	139016554
0.16067	144182505
0.16133	149268408
0.16200	154267919
0.16267	159174896
0.16333	163983167
0.16400	168687002
0.16467	173280516
0.16533	177758248
0.16600	182115011
0.16667	186345887
0.16733	190446017
0.16800	194410790
0.16867	198235581
0.16933	201916104
0.17000	205448123
0.17067	208827590
0.17133	212050274
0.17200	215111993
0.17267	218008319
0.17333	220734435
0.17400	223285831
0.17467	225658077
0.17533	227847453
0.17600	229850676
0.17667	231665466
0.17733	233290255
0.17800	234724676
0.17867	235968805
0.17933	237023477
0.18000	237889931
0.18067	238570315
0.18133	239067178
0.18200	239383877
0.18267	239523875
0.18333	239491265
0.18400	239290414
0.18467	238926033
0.18533	238402947
0.18600	237726164
0.18667	236900708
0.18733	235931723
0.18800	234824401
0.18867	233584100
0.18933	232216364
0.19000	230726662
0.19067	229120559
0.19133	227403588
0.19200	225581450
0.19267	223659766
0.19333	221644218
0.19400	219540359
0.19467	217353807
0.19533	215089983
0.19600	212754233
0.19667	210351740
0.19733	207887653
0.19800	205366916
0.19867	202794417
0.19933	200174888
0.20000	197512991
0.20067	194813244
0.20133	192080076
0.20200	189317817
0.20267	186530734
0.20333	183723011
0.20400	180898719
0.20467	178061797
0.20533	175216008
0.20600	172364926
0.20667	169511910
0.20733	166660196
0.20800	163813007
0.20867	160973613
0.20933	158145043
0.21000	155329797
0.21067	152529758
0.21133	149746406
0.21200	146980940
0.21267	144234480
0.21333	141508095
0.21400	138802867
0.21467	136119870
0.21533	133460203
0.21600	130824936
0.21667	128215137
0.21733	125631836
0.21800	123076027
0.21867	120548646
0.21933	118050574
0.22000	115582638
0.22067	113145598
0.22133	110740151
0.22200	108366923
0.22267	106026477
0.22333	103719308
0.22400	101445855
0.22467	99206483
0.22533	97001512
0.22600	94831195
0.22667	92695732
0.22733	90595262
0.22800	88529890
0.22867	86499670
0.22933	84504615
0.23000	82544690
0.23067	80619823
0.23133	78729899
0.23200	76874781
0.23267	75054296
0.23333	73268244
0.23400	71516395
0.23467	69798499
0.23533	68114279
0.23600	66463437
0.23667	64845657
0.23733	63260606
0.23800	61707938
0.23867	60187286
0.23933	58698279
0.24000	57240529
0.24067	55813643
0.24133	54417216
0.24200	53050837
0.24267	51714088
0.24333	50406548
0.24400	49127787
0.24467	47877372
0.24533	46654866
0.24600	45459832
0.24667	44291833
0.24733	43150429
0.24800	42035178
0.24867	40945634
0.24933	39881357
0.25000	38841905
0.25067	37826841
0.25133	36835724
0.25200	35868122
0.25267	34923601
0.25333	34001734
0.25400	33102091
0.25467	32224251
0.25533	31367790
0.25600	30532294
0.25667	29717347
0.25733	28922542
0.25800	28147472
0.25867	27391736
0.25933	26654938
0.26000	25936688
0.26067	25236595
0.26133	24554279
0.26200	23889358
0.26267	23241462
0.26333	22610222
0.26400	21995278
0.26467	21396272
0.26533	20812851
0.26600	20244669
0.26667	19691382
0.26733	19152652
0.26800	18628148
0.26867	18117543
0.26933	17620516
0.27000	17136752
0.27067	16665940
0.27133	16207775
0.27200	15761959
0.27267	15328196
0.27333	14906198
0.27400	14495683
0.27467	14096373
0.27533	13707994
0.27600	13330279
0.27667	12962966
0.27733	12605799
0.27800	12258529
0.27867	11920910
0.27933	11592702
0.28000	11273669
0.28067	10963581
0.28133	10662215
0.28200	10369352
0.28267	10084778
0.28333	9808289
0.28400	9539681
0.28467	9278761
0.28533	9025338
0.28600	8779230
0.28667	8540259
0.28733	8308257
0.28800	8083059
0.28867	7864507
0.28933	7652453
0.29000	7446756
0.29067	7247287
0.29133	7053929
0.29200	6866574
0.29267	6685131
0.29333	6509526
0.29400	6339701
0.29467	6175612
0.29533	6017222
0.29600	5864506
0.29667	5717431
0.29733	5575967
0.29800	5440076
0.29867	5309715
0.29933	5184829
0.30000	5065356
0.30067	4951219
0.30133	4842334
0.30200	4738604
0.30267	4639922
0.30333	4546170
0.30400	4457228
0.30467	4372965
0.30533	4293244
0.30600	4217914
0.30667	4146818
0.30733	4079797
0.30800	4016691
0.30867	3957347
0.30933	3901610
0.31000	3849327
0.31067	3800351
0.31133	3754530
0.31200	3711715
0.31267	3671758
0.31333	3634516
0.31400	3599853
0.31467	3567628
0.31533	3537705
0.31600	3509948
0.31667	3484229
0.31733	3460424
0.31800	3438416
0.31867	3418087
0.31933	3399329
0.32000	3382036
0.32067	3366111
0.32133	3351465
0.32200	3338017
0.32267	3325692
0.32333	3314422
0.32400	3304140
0.32467	3294775
0.32533	3286259
0.32600	3278522
0.32667	3271488
0.32733	3265074
0.32800	3259188
0.32867	3253732
0.32933	3248608
0.33000	3243723
0.33067	3238983
0.33133	3234299
0.33200	3229576
0.33267	3224719
0.33333	3219624
0.33400	3214185
0.33467	3208283
0.33533	3201807
0.33600	3194639
0.33667	3186667
0.33733	3177778
0.33800	3167866
0.33867	3156831
0.33933	3144579
0.34000	3131025
0.34067	3116097
0.34133	3099733
0.34200	3081886
0.34267	3062525
0.34333	3041636
0.34400	3019222
0.34467	2995302
0.34533	2969913
0.34600	2943104
0.34667	2914936
0.34733	2885479
0.34800	2854808
0.34867	2823007
0.34933	2790160
0.35000	2756354
0.35067	2721676
0.35133	2686212
0.35200	2650047
0.35267	2613264
0.35333	2575944
0.35400	2538162
0.35467	2499995
0.35533	2461513
0.35600	2422784
0.35667	2383872
0.35733	2344837
0.35800	2305736
0.35867	2266623
0.35933	2227549
0.36000	2188560
0.36067	2149700
0.36133	2111009
0.36200	2072526
0.36267	2034284
0.36333	1996317
0.36400	1958653
0.36467	1921319
0.36533	1884341
0.36600	1847741
0.36667	1811538
0.36733	1775753
0.36800	1740400
0.36867	1705496
0.36933	1671052
0.37000	1637082
0.37067	1603595
0.37133	1570600
0.37200	1538107
0.37267	1506121
0.37333	1474649
0.37400	1443697
0.37467	1413267
0.37533	1383362
0.37600	1353984
0.37667	1325134
0.37733	1296811
0.37800	1269013
0.37867	1241741
0.37933	1214992
0.38000	1188762
0.38067	1163049
0.38133	1137849
0.38200	1113158
0.38267	1088972
0.38333	1065286
0.38400	1042094
0.38467	1019393
0.38533	997176
0.38600	975439
0.38667	954174
0.38733	933376
0.38800	913037
0.38867	893153
0.38933	873717
0.39000	854724
0.39067	836170
0.39133	818050
0.39200	800359
0.39267	783093
0.39333	766247
0.39400	749815
0.39467	733793
0.39533	718175
0.39600	702956
0.39667	688129
0.39733	673691
0.39800	659635
0.39867	645957
0.39933	632654
0.40000	619721
0.40067	607156
0.40133	594953
0.40200	583108
0.40267	571615
0.40333	560464
0.40400	549646
0.40467	539150
0.40533	528966
0.40600	519085
0.40667	509496
0.40733	500190
0.40800	491158
0.40867	482390
0.40933	473878
0.41000	465612
0.41067	457585
0.41133	449790
0.41200	442218
0.41267	434862
0.41333	427716
0.41400	420772
0.41467	414024
0.41533	407466
0.41600	401092
0.41667	394895
0.41733	388871
0.41800	383013
0.41867	377317
0.41933	371777
0.42000	366388
0.42067	361145
0.42133	356045
0.42200	351082
0.42267	346253
0.42333	341551
0.42400	336975
0.42467	332518
0.42533	328178
0.42600	323951
0.42667	319832
0.42733	315818
0.42800	311906
0.42867	308092
0.42933	304372
0.43000	300744
0.43067	297204
0.43133	293750
0.43200	290379
0.43267	287087
0.43333	283873
0.43400	280734
0.43467	277667
0.43533	274668
0.43600	271737
0.43667	268871
0.43733	266067
0.43800	263324
0.43867	260638
0.43933	258009
0.44000	255434
0.44067	252911
0.44133	250439
0.44200	248015
0.44267	245638
0.44333	243307
0.44400	241020
0.44467	238775
0.44533	236572
0.44600	234409
0.44667	232284
0.44733	230196
0.44800	228145
0.44867	226128
0.44933	224146
0.45000	222196
0.45067	220277
0.45133	218390
0.45200	216532
0.45267	214704
0.45333	212903
0.45400	211130
0.45467	209383
0.45533	207661
0.45600	205965
0.45667	204293
0.45733	202644
0.45800	201018
0.45867	199415
0.45933	197834
0.46000	196274
0.46067	194735
0.46133	193217
0.46200	191718
0.46267	190240
0.46333	188781
0.46400	187341
0.46467	185919
0.46533	184517
0.46600	183132
0.46667	181765
0.46733	180416
0.46800	179084
0.46867	177769
0.46933	176470
0.47000	175188
0.47067	173922
0.47133	172672
0.47200	171436
0.47267	170216
0.47333	169011
0.47400	167819
0.47467	166642
0.47533	165478
0.47600	164328
0.47667	163191
0.47733	162066
0.47800	160953
0.47867	159853
0.47933	158765
0.48000	157688
0.48067	156622
0.48133	155567
0.48200	154523
0.48267	153490
0.48333	152468
0.48400	151455
0.48467	150452
0.48533	149459
0.48600	148476
0.48667	147502
0.48733	146537
0.48800	145582
0.48867	144635
0.48933	143698
0.49000	142769
0.49067	141849
0.49133	140936
0.49200	140033
0.49267	139137
0.49333	138249
0.49400	137369
0.49467	136496
0.49533	135631
0.49600	134774
0.49667	133924
0.49733	133081
0.49800	132246
0.49867	131417
0.49933	130596
0.50000	129781
0.50067	128973
0.50133	128172
0.50200	127379
0.50267	126591
0.50333	125810
0.50400	125036
0.50467	124268
0.50533	123507
0.50600	122752
0.50667	122003
0.50733	121260
0.50800	120524
0.50867	119794
0.50933	119069
0.51000	118351
0.51067	117639
0.51133	116933
0.51200	116232
0.51267	115538
0.51333	114849
0.51400	114166
0.51467	113489
0.51533	112818
0.51600	112153
0.51667	111494
0.51733	110841
0.51800	110193
0.51867	109551
0.51933	108915
0.52000	108284
0.52067	107659
0.52133	107039
0.52200	106424
0.52267	105815
0.52333	105210
0.52400	104610
0.52467	104015
0.52533	103425
0.52600	102839
0.52667	102257
0.52733	101680
0.52800	101108
0.52867	100540
0.52933	99976
0.53000	99416
0.53067	98861
0.53133	98310
0.53200	97764
0.53267	97221
0.53333	96683
0.53400	96150
0.53467	95620
0.53533	95095
0.53600	94575
0.53667	94058
0.53733	93546
0.53800	93038
0.53867	92534
0.53933	92035
0.54000	91539
0.54067	91047
0.54133	90560
0.54200	90076
0.54267	89596
0.54333	89120
0.54400	88648
0.54467	88179
0.54533	87714
0.54600	87253
0.54667	86795
0.54733	86341
0.54800	85890
0.54867	85443
0.54933	85000
0.55000	84560
0.55067	84123
0.55133	83690
0.55200	83261
0.55267	82834
0.55333	82411
0.55400	81991
0.55467	81574
0.55533	81161
0.55600	80751
0.55667	80344
0.55733	79940
0.55800	79540
0.55867	79143
0.55933	78749
0.56000	78358
0.56067	77970
0.56133	77586
0.56200	77204
0.56267	76826
0.56333	76451
0.56400	76079
0.56467	75711
0.56533	75345
0.56600	74983
0.56667	74624
0.56733	74268
0.56800	73915
0.56867	73566
0.56933	73220
0.57000	72877
0.57067	72538
0.57133	72202
0.57200	71869
0.57267	71540
0.57333	71214
0.57400	70891
0.57467	70572
0.57533	70256
0.57600	69942
0.57667	69632
0.57733	69325
0.57800	69021
0.57867	68720
0.57933	68421
0.58000	68125
0.58067	67831
0.58133	67540
0.58200	67252
0.58267	66965
0.58333	66681
0.58400	66400
0.58467	66120
0.58533	65843
0.58600	65568
0.58667	65294
0.58733	65023
0.58800	64754
0.58867	64486
0.58933	64221
0.59000	63957
0.59067	63694
0.59133	63434
0.59200	63175
0.59267	62918
0.59333	62662
0.59400	62408
0.59467	62156
0.59533	61905
0.59600	61656
0.59667	61409
0.59733	61163
0.59800	60919
0.59867	60677
0.59933	60436
0.60000	60196
0.60067	59959
0.60133	59723
0.60200	59488
0.60267	59255
0.60333	59024
0.60400	58795
0.60467	58567
0.60533	58342
0.60600	58118
0.60667	57895
0.60733	57675
0.60800	57456
0.60867	57239
0.60933	57024
0.61000	56811
0.61067	56600
0.61133	56391
0.61200	56183
0.61267	55978
0.61333	55775
0.61400	55574
0.61467	55375
0.61533	55179
0.61600	54985
0.61667	54793
0.61733	54605
0.61800	54419
0.61867	54238
0.61933	54061
0.62000	53888
0.62067	53721
0.62133	53561
0.62200	53408
0.62267	53264
0.62333	53130
0.62400	53007
0.62467	52897
0.62533	52801
0.62600	52721
0.62667	52656
0.62733	52609
0.62800	52581
0.62867	52570
0.62933	52579
0.63000	52606
0.63067	52652
0.63133	52715
0.63200	52795
0.63267	52890
0.63333	52998
0.63400	53117
0.63467	53245
0.63533	53380
0.63600	53519
0.63667	53659
0.63733	53798
0.63800	53934
0.63867	54065
0.63933	54188
0.64000	54302
0.64067	54406
0.64133	54497
0.64200	54575
0.64267	54640
0.64333	54690
0.64400	54725
0.64467	54744
0.64533	54749
0.64600	54739
0.64667	54713
0.64733	54673
0.64800	54619
0.64867	54552
0.64933	54471
0.65000	54379
0.65067	54274
0.65133	54159
0.65200	54033
0.65267	53898
0.65333	53754
0.65400	53601
0.65467	53441
0.65533	53274
0.65600	53100
0.65667	52921
0.65733	52735
0.65800	52545
0.65867	52351
0.65933	52153
0.66000	51951
0.66067	51747
0.66133	51540
0.66200	51330
0.66267	51119
0.66333	50905
0.66400	50691
0.66467	50475
0.66533	50258
0.66600	50040
0.66667	49822
0.66733	49603
0.66800	49384
0.66867	49165
0.66933	48946
0.67000	48726
0.67067	48507
0.67133	48289
0.67200	48070
0.67267	47852
0.67333	47635
0.67400	47418
0.67467	47202
0.67533	46986
0.67600	46772
0.67667	46558
0.67733	46346
0.67800	46134
0.67867	45924
0.67933	45715
0.68000	45508
0.68067	45302
0.68133	45098
0.68200	44896
0.68267	44695
0.68333	44497
0.68400	44301
0.68467	44108
0.68533	43917
0.68600	43729
0.68667	43544
0.68733	43363
0.68800	43185
0.68867	43011
0.68933	42842
0.69000	42677
0.69067	42518
0.69133	42364
0.69200	42216
0.69267	42075
0.69333	41941
0.69400	41815
0.69467	41699
0.69533	41592
0.69600	41498
0.69667	41416
0.69733	41348
0.69800	41297
0.69867	41264
0.69933	41250
0.70000	41258
0.70067	41290
0.70133	41347
0.70200	41431
0.70267	41541
0.70333	41679
0.70400	41845
0.70467	42038
0.70533	42259
0.70600	42504
0.70667	42774
0.70733	43065
0.70800	43375
0.70867	43701
0.70933	44038
0.71000	44385
0.71067	44735
0.71133	45086
0.71200	45433
0.71267	45771
0.71333	46099
0.71400	46412
0.71467	46708
0.71533	46985
0.71600	47241
0.71667	47474
0.71733	47683
0.71800	47867
0.71867	48027
0.71933	48161
0.72000	48271
0.72067	48355
0.72133	48416
0.72200	48453
0.72267	48467
0.72333	48460
0.72400	48432
0.72467	48385
0.72533	48318
0.72600	48235
0.72667	48135
0.72733	48019
0.72800	47889
0.72867	47746
0.72933	47590
0.73000	47423
0.73067	47246
0.73133	47058
0.73200	46862
0.73267	46657
0.73333	46446
0.73400	46227
0.73467	46002
0.73533	45773
0.73600	45538
0.73667	45299
0.73733	45056
0.73800	44810
0.73867	44561
0.73933	44309
0.74000	44056
0.74067	43801
0.74133	43545
0.74200	43288
0.74267	43031
0.74333	42774
0.74400	42516
0.74467	42259
0.74533	42003
0.74600	41747
0.74667	41493
0.74733	41240
0.74800	40988
0.74867	40738
0.74933	40490
0.75000	40243
0.75067	39999
0.75133	39757
0.75200	39517
0.75267	39279
0.75333	39044
0.75400	38812
0.75467	38582
0.75533	38354
0.75600	38130
0.75667	37908
0.75733	37688
0.75800	37472
0.75867	37258
0.75933	37047
0.76000	36839
0.76067	36634
0.76133	36431
0.76200	36232
0.76267	36035
0.76333	35842
0.76400	35651
0.76467	35463
0.76533	35278
0.76600	35095
0.76667	34916
0.76733	34739
0.76800	34566
0.76867	34395
0.76933	34227
0.77000	34061
0.77067	33899
0.77133	33739
0.77200	33582
0.77267	33427
0.77333	33276
0.77400	33127
0.77467	32980
0.77533	32837
0.77600	32695
0.77667	32557
0.77733	32421
0.77800	32287
0.77867	32156
0.77933	32027
0.78000	31900
0.78067	31776
0.78133	31654
0.78200	31534
0.78267	31416
0.78333	31301
0.78400	31187
0.78467	31075
0.78533	30966
0.78600	30858
0.78667	30752
0.78733	30648
0.78800	30546
0.78867	30445
0.78933	30346
0.79000	30249
0.79067	30154
0.79133	30060
0.79200	29967
0.79267	29876
0.79333	29787
0.79400	29699
0.79467	29612
0.79533	29527
0.79600	29443
0.79667	29360
0.79733	29279
0.79800	29199
0.79867	29120
0.79933	29042
0.80000	28966
0.80067	28891
0.80133	28816
0.80200	28743
0.80267	28671
0.80333	28600
0.80400	28530
0.80467	28461
0.80533	28392
0.80600	28325
0.80667	28258
0.80733	28193
0.80800	28128
0.80867	28064
0.80933	28000
0.81000	27938
0.81067	27876
0.81133	27815
0.81200	27754
0.81267	27694
0.81333	27635
0.81400	27576
0.81467	27518
0.81533	27460
0.81600	27403
0.81667	27347
0.81733	27290
0.81800	27235
0.81867	27180
0.81933	27125
0.82000	27070
0.82067	27016
0.82133	26963
0.82200	26910
0.82267	26857
0.82333	26805
0.82400	26753
0.82467	26702
0.82533	26651
0.82600	26600
0.82667	26550
0.82733	26500
0.82800	26451
0.82867	26402
0.82933	26353
0.83000	26305
0.83067	26257
0.83133	26209
0.83200	26162
0.83267	26115
0.83333	26069
0.83400	26023
0.83467	25977
0.83533	25931
0.83600	25886
0.83667	25842
0.83733	25797
0.83800	25753
0.83867	25709
0.83933	25666
0.84000	25623
0.84067	25580
0.84133	25538
0.84200	25495
0.84267	25453
0.84333	25412
0.84400	25370
0.84467	25329
0.84533	25289
0.84600	25248
0.84667	25208
0.84733	25169
0.84800	25129
0.84867	25090
0.84933	25051
0.85000	25012
0.85067	24974
0.85133	24936
0.85200	24898
0.85267	24860
0.85333	24823
0.85400	24786
0.85467	24749
0.85533	24712
0.85600	24676
0.85667	24639
0.85733	24603
0.85800	24568
0.85867	24532
0.85933	24496
0.86000	24461
0.86067	24426
0.86133	24391
0.86200	24357
0.86267	24322
0.86333	24288
0.86400	24254
0.86467	24221
0.86533	24187
0.86600	24154
0.86667	24120
0.86733	24087
0.86800	24054
0.86867	24022
0.86933	23989
0.87000	23957
0.87067	23924
0.87133	23892
0.87200	23860
0.87267	23829
0.87333	23797
0.87400	23765
0.87467	23734
0.87533	23703
0.87600	23672
0.87667	23641
0.87733	23610
0.87800	23580
0.87867	23549
0.87933	23519
0.88000	23488
0.88067	23458
0.88133	23428
0.88200	23398
0.88267	23368
0.88333	23339
0.88400	23309
0.88467	23280
0.88533	23251
0.88600	23222
0.88667	23193
0.88733	23164
0.88800	23135
0.88867	23107
0.88933	23078
0.89000	23050
0.89067	23023
0.89133	22995
0.89200	22967
0.89267	22940
0.89333	22913
0.89400	22886
0.89467	22859
0.89533	22833
0.89600	22807
0.89667	22780
0.89733	22755
0.89800	22729
0.89867	22704
0.89933	22679
0.90000	22654
0.90067	22630
0.90133	22606
0.90200	22583
0.90267	22560
0.90333	22538
0.90400	22515
0.90467	22494
0.90533	22473
0.90600	22452
0.90667	22432
0.90733	22413
0.90800	22394
0.90867	22376
0.90933	22358
0.91000	22341
0.91067	22324
0.91133	22307
0.91200	22291
0.91267	22276
0.91333	22261
0.91400	22246
0.91467	22232
0.91533	22217
0.91600	22204
0.91667	22190
0.91733	22177
0.91800	22163
0.91867	22150
0.91933	22137
0.92000	22124
0.92067	22111
0.92133	22098
0.92200	22086
0.92267	22073
0.92333	22060
0.92400	22047
0.92467	22034
0.92533	22021
0.92600	22008
0.92667	21995
0.92733	21982
0.92800	21969
0.92867	21955
0.92933	21942
0.93000	21928
0.93067	21914
0.93133	21901
0.93200	21887
0.93267	21873
0.93333	21859
0.93400	21844
0.93467	21830
0.93533	21816
0.93600	21801
0.93667	21786
0.93733	21772
0.93800	21757
0.93867	21742
0.93933	21726
0.94000	21711
0.94067	21695
0.94133	21680
0.94200	21664
0.94267	21648
0.94333	21631
0.94400	21615
0.94467	21598
0.94533	21582
0.94600	21565
0.94667	21547
0.94733	21530
0.94800	21512
0.94867	21494
0.94933	21476
0.95000	21457
0.95067	21439
0.95133	21420
0.95200	21401
0.95267	21381
0.95333	21362
0.95400	21342
0.95467	21322
0.95533	21302
0.95600	21282
0.95667	21262
0.95733	21241
0.95800	21221
0.95867	21200
0.95933	21180
0.96000	21159
0.96067	21138
0.96133	21118
0.96200	21097
0.96267	21076
0.96333	21055
0.96400	21035
0.96467	21014
0.96533	20993
0.96600	20973
0.96667	20952
0.96733	20931
0.96800	20911
0.96867	20890
0.96933	20870
0.97000	20849
0.97067	20828
0.97133	20808
0.97200	20787
0.97267	20766
0.97333	20745
0.97400	20724
0.97467	20703
0.97533	20682
0.97600	20660
0.97667	20638
0.97733	20617
0.97800	20594
0.97867	20572
0.97933	20550
0.98000	20527
0.98067	20504
0.98133	20481
0.98200	20458
0.98267	20434
0.98333	20410
0.98400	20386
0.98467	20362
0.98533	20338
0.98600	20314
0.98667	20289
0.98733	20265
0.98800	20240
0.98867	20215
0.98933	20190
0.99000	20165
0.99067	20140
0.99133	20116
0.99200	20091
0.99267	20066
0.99333	20041
0.99400	20016
0.99467	19991
0.99533	19966
0.99600	19941
0.99667	19916
0.99733	19892
0.99800	19867
0.99867	19842
0.99933	19818
1.00000	19793
1.00067	19769
1.00133	19744
1.00200	19720
1.00267	19696
1.00333	19672
1.00400	19648
1.00467	19624
1.00533	19600
1.00600	19576
1.00667	19552
1.00733	19529
1.00800	19506
1.00867	19482
1.00933	19459
1.01000	19436
1.01067	19414
1.01133	19391
1.01200	19369
1.01267	19346
1.01333	19325
1.01400	19303
1.01467	19281
1.01533	19260
1.01600	19239
1.01667	19218
1.01733	19198
1.01800	19178
1.01867	19158
1.01933	19138
1.02000	19119
1.02067	19100
1.02133	19081
1.02200	19063
1.02267	19045
1.02333	19027
1.02400	19010
1.02467	18993
1.02533	18976
1.02600	18960
1.02667	18944
1.02733	18928
1.02800	18913
1.02867	18897
1.02933	18882
1.03000	18867
1.03067	18853
1.03133	18838
1.03200	18824
1.03267	18809
1.03333	18795
1.03400	18781
1.03467	18767
1.03533	18753
1.03600	18739
1.03667	18725
1.03733	18711
1.03800	18696
1.03867	18682
1.03933	18668
1.04000	18654
1.04067	18639
1.04133	18625
1.04200	18610
1.04267	18595
1.04333	18580
1.04400	18565
1.04467	18550
1.04533	18535
1.04600	18520
1.04667	18505
1.04733	18489
1.04800	18473
1.04867	18458
1.04933	18442
1.05000	18426
1.05067	18410
1.05133	18394
1.05200	18378
1.05267	18362
1.05333	18346
1.05400	18330
1.05467	18313
1.05533	18297
1.05600	18281
1.05667	18264
1.05733	18248
1.05800	18232
1.05867	18215
1.05933	18199
1.06000	18182
1.06067	18166
1.06133	18149
1.06200	18133
1.06267	18116
1.06333	18100
1.06400	18084
1.06467	18067
1.06533	18051
1.06600	18035
1.06667	18019
1.06733	18002
1.06800	17986
1.06867	17970
1.06933	17954
1.07000	17938
1.07067	17922
1.07133	17907
1.07200	17891
1.07267	17875
1.07333	17860
1.07400	17845
1.07467	17829
1.07533	17814
1.07600	17799
1.07667	17784
1.07733	17770
1.07800	17755
1.07867	17741
1.07933	17726
1.08000	17712
1.08067	17698
1.08133	17684
1.08200	17671
1.08267	17657
1.08333	17644
1.08400	17631
1.08467	17618
1.08533	17605
1.08600	17592
1.08667	17579
1.08733	17566
1.08800	17554
1.08867	17541
1.08933	17529
1.09000	17516
1.09067	17504
1.09133	17492
1.09200	17480
1.09267	17468
1.09333	17456
1.09400	17444
1.09467	17432
1.09533	17421
1.09600	17409
1.09667	17398
1.09733	17386
1.09800	17375
1.09867	17364
1.09933	17353
1.10000	17342
1.10067	17331
1.10133	17321
1.10200	17310
1.10267	17300
1.10333	17290
1.10400	17281
1.10467	17271
1.10533	17262
1.10600	17253
1.10667	17245
1.10733	17236
1.10800	17229
1.10867	17221
1.10933	17214
1.11000	17207
1.11067	17200
1.11133	17193
1.11200	17187
1.11267	17181
1.11333	17175
1.11400	17170
1.11467	17164
1.11533	17159
1.11600	17154
1.11667	17149
1.11733	17144
1.11800	17139
1.11867	17133
1.11933	17128
1.12000	17123
1.12067	17117
1.12133	17112
1.12200	17106
1.12267	17101
1.12333	17095
1.12400	17089
1.12467	17082
1.12533	17076
1.12600	17070
1.12667	17063
1.12733	17056
1.12800	17049
1.12867	17042
1.12933	17035
1.13000	17028
1.13067	17020
1.13133	17012
1.13200	17004
1.13267	16996
1.13333	16988
1.13400	16980
1.13467	16971
1.13533	16963
1.13600	16954
1.13667	16945
1.13733	16935
1.13800	16926
1.13867	16917
1.13933	16907
1.14000	16897
1.14067	16888
1.14133	16878
1.14200	16867
1.14267	16857
1.14333	16847
1.14400	16836
1.14467	16826
1.14533	16815
1.14600	16804
1.14667	16793
1.14733	16782
1.14800	16771
1.14867	16760
1.14933	16748
1.15000	16737
1.15067	16726
1.15133	16714
1.15200	16703
1.15267	16691
1.15333	16680
1.15400	16668
1.15467	16657
1.15533	16645
1.15600	16634
1.15667	16622
1.15733	16611
1.15800	16599
1.15867	16588
1.15933	16577
1.16000	16565
1.16067	16554
1.16133	16542
1.16200	16531
1.16267	16520
1.16333	16508
1.16400	16497
1.16467	16486
1.16533	16475
1.16600	16463
1.16667	16452
1.16733	16441
1.16800	16430
1.16867	16419
1.16933	16408
1.17000	16397
1.17067	16386
1.17133	16375
1.17200	16364
1.17267	16354
1.17333	16343
1.17400	16333
1.17467	16322
1.17533	16312
1.17600	16302
1.17667	16292
1.17733	16281
1.17800	16272
1.17867	16262
1.17933	16252
1.18000	16242
1.18067	16233
1.18133	16223
1.18200	16214
1.18267	16205
1.18333	16195
1.18400	16186
1.18467	16178
1.18533	16169
1.18600	16160
1.18667	16152
1.18733	16143
1.18800	16135
1.18867	16127
1.18933	16119
1.19000	16112
1.19067	16104
1.19133	16097
1.19200	16090
1.19267	16083
1.19333	16077
1.19400	16070
1.19467	16064
1.19533	16058
1.19600	16052
1.19667	16046
1.19733	16040
1.19800	16035
1.19867	16030
1.19933	16025
1.20000	16020
1.20067	16015
1.20133	16011
1.20200	16006
1.20267	16002
1.20333	15998
1.20400	15994
1.20467	15991
1.20533	15987
1.20600	15984
1.20667	15981
1.20733	15978
1.20800	15975
1.20867	15972
1.20933	15970
1.21000	15967
1.21067	15965
1.21133	15963
1.21200	15961
1.21267	15959
1.21333	15958
1.21400	15957
1.21467	15955
1.21533	15954
1.21600	15953
1.21667	15953
1.21733	15952
1.21800	15951
1.21867	15951
1.21933	15951
1.22000	15950
1.22067	15950
1.22133	15951
1.22200	15951
1.22267	15951
1.22333	15952
1.22400	15953
1.22467	15954
1.22533	15955
1.22600	15956
1.22667	15957
1.22733	15959
1.22800	15960
1.22867	15962
1.22933	15964
1.23000	15966
1.23067	15968
1.23133	15970
1.23200	15972
1.23267	15974
1.23333	15977
1.23400	15980
1.23467	15982
1.23533	15985
1.23600	15988
1.23667	15991
1.23733	15994
1.23800	15998
1.23867	16001
1.23933	16005
1.24000	16009
1.24067	16013
1.24133	16018
1.24200	16022
1.24267	16027
1.24333	16033
1.24400	16038
1.24467	16045
1.24533	16051
1.24600	16059
1.24667	16067
1.24733	16076
1.24800	16085
1.24867	16096
1.24933	16107
1.25000	16120
1.25067	16133
1.25133	16148
1.25200	16164
1.25267	16182
1.25333	16201
1.25400	16221
1.25467	16243
1.25533	16266
1.25600	16290
1.25667	16316
1.25733	16343
1.25800	16371
1.25867	16400
1.25933	16431
1.26000	16462
1.26067	16494
1.26133	16527
1.26200	16560
1.26267	16593
1.26333	16627
1.26400	16661
1.26467	16694
1.26533	16727
1.26600	16760
1.26667	16793
1.26733	16824
1.26800	16855
1.26867	16885
1.26933	16913
1.27000	16941
1.27067	16967
1.27133	16992
1.27200	17016
1.27267	17038
1.27333	17059
1.27400	17078
1.27467	17096
1.27533	17112
1.27600	17127
1.27667	17140
1.27733	17152
1.27800	17162
1.27867	17171
1.27933	17178
1.28000	17184
1.28067	17188
1.28133	17191
1.28200	17193
1.28267	17193
1.28333	17192
1.28400	17190
1.28467	17187
1.28533	17183
1.28600	17177
1.28667	17171
1.28733	17164
1.28800	17155
1.28867	17146
1.28933	17136
1.29000	17126
1.29067	17114
1.29133	17102
1.29200	17089
1.29267	17075
1.29333	17061
1.29400	17046
1.29467	17031
1.29533	17015
1.29600	16999
1.29667	16982
1.29733	16965
1.29800	16948
1.29867	16930
1.29933	16912
1.30000	16893
1.30067	16875
1.30133	16856
1.30200	16837
1.30267	16817
1.30333	16798
1.30400	16778
1.30467	16758
1.30533	16738
1.30600	16718
1.30667	16697
1.30733	16677
1.30800	16656
1.30867	16635
1.30933	16615
1.31000	16594
1.31067	16573
1.31133	16552
1.31200	16531
1.31267	16510
1.31333	16488
1.31400	16467
1.31467	16446
1.31533	16425
1.31600	16403
1.31667	16382
1.31733	16361
1.31800	16340
1.31867	16318
1.31933	16297
1.32000	16276
1.32067	16255
1.32133	16233
1.32200	16212
1.32267	16191
1.32333	16170
1.32400	16149
1.32467	16128
1.32533	16107
1.32600	16086
1.32667	16065
1.32733	16044
1.32800	16023
1.32867	16003
1.32933	15982
1.33000	15961
1.33067	15941
1.33133	15920
1.33200	15900
1.33267	15880
1.33333	15860
1.33400	15840
1.33467	15820
1.33533	15800
1.33600	15780
1.33667	15761
1.33733	15742
1.33800	15723
1.33867	15704
1.33933	15685
1.34000	15666
1.34067	15648
1.34133	15630
1.34200	15612
1.34267	15594
1.34333	15576
1.34400	15558
1.34467	15541
1.34533	15524
1.34600	15507
1.34667	15490
1.34733	15473
1.34800	15456
1.34867	15440
1.34933	15424
1.35000	15408
1.35067	15392
1.35133	15376
1.35200	15360
1.35267	15345
1.35333	15330
1.35400	15315
1.35467	15300
1.35533	15285
1.35600	15270
1.35667	15256
1.35733	15241
1.35800	15227
1.35867	15213
1.35933	15199
1.36000	15185
1.36067	15172
1.36133	15158
1.36200	15145
1.36267	15131
1.36333	15118
1.36400	15105
1.36467	15092
1.36533	15079
1.36600	15066
1.36667	15054
1.36733	15041
1.36800	15029
1.36867	15016
1.36933	15004
1.37000	14992
1.37067	14980
1.37133	14968
1.37200	14956
1.37267	14945
1.37333	14933
1.37400	14922
1.37467	14911
1.37533	14899
1.37600	14888
1.37667	14877
1.37733	14866
1.37800	14855
1.37867	14845
1.37933	14834
1.38000	14823
1.38067	14813
1.38133	14802
1.38200	14792
1.38267	14782
1.38333	14772
1.38400	14762
1.38467	14752
1.38533	14743
1.38600	14733
1.38667	14724
1.38733	14714
1.38800	14705
1.38867	14696
1.38933	14686
1.39000	14677
1.39067	14668
1.39133	14659
1.39200	14650
1.39267	14641
1.39333	14632
1.39400	14623
1.39467	14615
1.39533	14606
1.39600	14597
1.39667	14589
1.39733	14580
1.39800	14572
1.39867	14563
1.39933	14555
1.40000	14547
1.40067	14538
1.40133	14530
1.40200	14522
1.40267	14514
1.40333	14505
1.40400	14497
1.40467	14489
1.40533	14481
1.40600	14472
1.40667	14464
1.40733	14456
1.40800	14448
1.40867	14440
1.40933	14432
1.41000	14423
1.41067	14415
1.41133	14407
1.41200	14399
1.41267	14391
1.41333	14383
1.41400	14374
1.41467	14366
1.41533	14358
1.41600	14350
1.41667	14342
1.41733	14334
1.41800	14326
1.41867	14318
1.41933	14310
1.42000	14303
1.42067	14295
1.42133	14287
1.42200	14279
1.42267	14271
1.42333	14263
1.42400	14256
1.42467	14248
1.42533	14240
1.42600	14233
1.42667	14225
1.42733	14218
1.42800	14211
1.42867	14203
1.42933	14196
1.43000	14189
1.43067	14182
1.43133	14175
1.43200	14168
1.43267	14161
1.43333	14154
1.43400	14147
1.43467	14140
1.43533	14133
1.43600	14126
1.43667	14119
1.43733	14112
1.43800	14106
1.43867	14099
1.43933	14093
1.44000	14086
1.44067	14080
1.44133	14074
1.44200	14068
1.44267	14062
1.44333	14056
1.44400	14050
1.44467	14045
1.44533	14039
1.44600	14034
1.44667	14029
1.44733	14024
1.44800	14019
1.44867	14014
1.44933	14009
1.45000	14004
1.45067	14000
1.45133	13995
1.45200	13991
1.45267	13987
1.45333	13983
1.45400	13979
1.45467	13975
1.45533	13971
1.45600	13968
1.45667	13964
1.45733	13961
1.45800	13957
1.45867	13954
1.45933	13951
1.46000	13948
1.46067	13945
1.46133	13941
1.46200	13938
1.46267	13935
1.46333	13932
1.46400	13929
1.46467	13926
1.46533	13922
1.46600	13919
1.46667	13916
1.46733	13912
1.46800	13909
1.46867	13905
1.46933	13901
1.47000	13897
1.47067	13893
1.47133	13889
1.47200	13885
1.47267	13881
1.47333	13876
1.47400	13872
1.47467	13867
1.47533	13862
1.47600	13858
1.47667	13853
1.47733	13848
1.47800	13843
1.47867	13838
1.47933	13833
1.48000	13828
1.48067	13822
1.48133	13817
1.48200	13812
1.48267	13806
1.48333	13801
1.48400	13795
1.48467	13790
1.48533	13784
1.48600	13778
1.48667	13772
1.48733	13767
1.48800	13761
1.48867	13755
1.48933	13749
1.49000	13742
1.49067	13736
1.49133	13730
1.49200	13724
1.49267	13717
1.49333	13711
1.49400	13704
1.49467	13698
1.49533	13691
1.49600	13685
1.49667	13678
1.49733	13671
1.49800	13665
1.49867	13658
1.49933	13651
1.50000	13645
1.50067	13638
1.50133	13631
1.50200	13625
1.50267	13618
1.50333	13612
1.50400	13605
1.50467	13599
1.50533	13592
1.50600	13586
1.50667	13579
1.50733	13572
1.50800	13566
1.50867	13559
1.50933	13553
1.51000	13546
1.51067	13539
1.51133	13533
1.51200	13526
1.51267	13520
1.51333	13513
1.51400	13507
1.51467	13500
1.51533	13494
1.51600	13488
1.51667	13481
1.51733	13475
1.51800	13469
1.51867	13463
1.51933	13456
1.52000	13450
1.52067	13444
1.52133	13438
1.52200	13433
1.52267	13427
1.52333	13421
1.52400	13415
1.52467	13410
1.52533	13404
1.52600	13398
1.52667	13393
1.52733	13387
1.52800	13382
1.52867	13376
1.52933	13371
1.53000	13365
1.53067	13360
1.53133	13354
1.53200	13349
1.53267	13344
1.53333	13338
1.53400	13333
1.53467	13328
1.53533	13323
1.53600	13317
1.53667	13312
1.53733	13307
1.53800	13302
1.53867	13297
1.53933	13292
1.54000	13287
1.54067	13281
1.54133	13276
1.54200	13271
1.54267	13266
1.54333	13261
1.54400	13256
1.54467	13251
1.54533	13246
1.54600	13241
1.54667	13236
1.54733	13231
1.54800	13226
1.54867	13221
1.54933	13216
1.55000	13211
1.55067	13206
1.55133	13201
1.55200	13196
1.55267	13191
1.55333	13186
1.55400	13181
1.55467	13176
1.55533	13171
1.55600	13166
1.55667	13161
1.55733	13156
1.55800	13151
1.55867	13146
1.55933	13141
1.56000	13136
1.56067	13131
1.56133	13127
1.56200	13122
1.56267	13117
1.56333	13112
1.56400	13107
1.56467	13102
1.56533	13097
1.56600	13092
1.56667	13087
1.56733	13082
1.56800	13077
1.56867	13072
1.56933	13067
1.57000	13062
1.57067	13057
1.57133	13053
1.57200	13048
1.57267	13043
1.57333	13039
1.57400	13034
1.57467	13029
1.57533	13025
1.57600	13020
1.57667	13015
1.57733	13011
1.57800	13006
1.57867	13002
1.57933	12997
1.58000	12993
1.58067	12988
1.58133	12984
1.58200	12979
1.58267	12975
1.58333	12970
1.58400	12966
1.58467	12961
1.58533	12957
1.58600	12953
1.58667	12948
1.58733	12944
1.58800	12940
1.58867	12935
1.58933	12931
1.59000	12927
1.59067	12923
1.59133	12918
1.59200	12914
1.59267	12910
1.59333	12906
1.59400	12902
1.59467	12898
1.59533	12894
1.59600	12890
1.59667	12887
1.59733	12883
1.59800	12879
1.59867	12875
1.59933	12872
1.60000	12868
1.60067	12864
1.60133	12861
1.60200	12857
1.60267	12853
1.60333	12850
1.60400	12846
1.60467	12843
1.60533	12839
1.60600	12835
1.60667	12832
1.60733	12828
1.60800	12825
1.60867	12821
1.60933	12818
1.61000	12815
1.61067	12811
1.61133	12808
1.61200	12805
1.61267	12802
1.61333	12799
1.61400	12795
1.61467	12792
1.61533	12789
1.61600	12786
1.61667	12783
1.61733	12780
1.61800	12777
1.61867	12774
1.61933	12771
1.62000	12768
1.62067	12765
1.62133	12762
1.62200	12759
1.62267	12756
1.62333	12754
1.62400	12751
1.62467	12748
1.62533	12746
1.62600	12743
1.62667	12740
1.62733	12738
1.62800	12735
1.62867	12733
1.62933	12731
1.63000	12728
1.63067	12726
1.63133	12724
1.63200	12722
1.63267	12719
1.63333	12717
1.63400	12715
1.63467	12713
1.63533	12711
1.63600	12709
1.63667	12707
1.63733	12705
1.63800	12703
1.63867	12701
1.63933	12699
1.64000	12697
1.64067	12695
1.64133	12693
1.64200	12691
1.64267	12690
1.64333	12688
1.64400	12686
1.64467	12684
1.64533	12682
1.64600	12680
1.64667	12678
1.64733	12677
1.64800	12675
1.64867	12673
1.64933	12671
1.65000	12669
1.65067	12667
1.65133	12665
1.65200	12663
1.65267	12662
1.65333	12660
1.65400	12658
1.65467	12656
1.65533	12655
1.65600	12653
1.65667	12651
1.65733	12650
1.65800	12648
1.65867	12647
1.65933	12645
1.66000	12643
1.66067	12642
1.66133	12640
1.66200	12639
1.66267	12637
1.66333	12635
1.66400	12634
1.66467	12632
1.66533	12631
1.66600	12629
1.66667	12627
1.66733	12625
1.66800	12624
1.66867	12622
1.66933	12620
1.67000	12618
1.67067	12616
1.67133	12614
1.67200	12611
1.67267	12609
1.67333	12607
1.67400	12604
1.67467	12601
1.67533	12599
1.67600	12596
1.67667	12593
1.67733	12590
1.67800	12587
1.67867	12584
1.67933	12581
1.68000	12578
1.68067	12574
1.68133	12571
1.68200	12567
1.68267	12564
1.68333	12560
1.68400	12557
1.68467	12553
1.68533	12549
1.68600	12545
1.68667	12541
1.68733	12537
1.68800	12533
1.68867	12529
1.68933	12525
1.69000	12521
1.69067	12517
1.69133	12513
1.69200	12508
1.69267	12504
1.69333	12500
1.69400	12495
1.69467	12491
1.69533	12486
1.69600	12482
1.69667	12478
1.69733	12473
1.69800	12469
1.69867	12464
1.69933	12460
1.70000	12455
1.70067	12451
1.70133	12446
1.70200	12442
1.70267	12438
1.70333	12433
1.70400	12429
1.70467	12425
1.70533	12421
1.70600	12416
1.70667	12412
1.70733	12408
1.70800	12404
1.70867	12400
1.70933	12396
1.71000	12392
1.71067	12388
1.71133	12384
1.71200	12380
1.71267	12377
1.71333	12373
1.71400	12369
1.71467	12366
1.71533	12362
1.71600	12359
1.71667	12357
1.71733	12355
1.71800	12353
1.71867	12352
1.71933	12352
1.72000	12352
1.72067	12354
1.72133	12358
1.72200	12363
1.72267	12371
1.72333	12382
1.72400	12396
1.72467	12414
1.72533	12438
1.72600	12467
1.72667	12504
1.72733	12550
1.72800	12607
1.72867	12677
1.72933	12761
1.73000	12864
1.73067	12987
1.73133	13135
1.73200	13311
1.73267	13520
1.73333	13768
1.73400	14060
1.73467	14403
1.73533	14804
1.73600	15271
1.73667	15812
1.73733	16436
1.73800	17155
1.73867	17980
1.73933	18924
1.74000	19999
1.74067	21219
1.74133	22600
1.74200	24157
1.74267	25907
1.74333	27867
1.74400	30055
1.74467	32490
1.74533	35189
1.74600	38174
1.74667	41464
1.74733	45080
1.74800	49045
1.74867	53380
1.74933	58107
1.75000	63247
1.75067	68822
1.75133	74853
1.75200	81358
1.75267	88360
1.75333	95874
1.75400	103916
1.75467	112502
1.75533	121651
1.75600	131382
1.75667	141718
1.75733	152679
1.75800	164288
1.75867	176560
1.75933	189505
1.76000	203123
1.76067	217419
1.76133	232396
1.76200	248053
1.76267	264394
1.76333	281418
1.76400	299122
1.76467	317498
1.76533	336534
1.76600	356216
1.76667	376529
1.76733	397457
1.76800	418996
1.76867	441134
1.76933	463853
1.77000	487125
1.77067	510912
1.77133	535168
1.77200	559841
1.77267	584872
1.77333	610190
1.77400	635710
1.77467	661336
1.77533	686965
1.77600	712486
1.77667	737780
1.77733	762730
1.77800	787223
1.77867	811140
1.77933	834356
1.78000	856754
1.78067	878213
1.78133	898620
1.78200	917871
1.78267	935877
1.78333	952559
1.78400	967855
1.78467	981712
1.78533	994098
1.78600	1004991
1.78667	1014388
1.78733	1022294
1.78800	1028726
1.78867	1033714
1.78933	1037294
1.79000	1039512
1.79067	1040417
1.79133	1040064
1.79200	1038509
1.79267	1035813
1.79333	1032040
1.79400	1027253
1.79467	1021515
1.79533	1014890
1.79600	1007439
1.79667	999225
1.79733	990305
1.79800	980736
1.79867	970573
1.79933	959869
1.80000	948674
1.80067	937035
1.80133	924998
1.80200	912605
1.80267	899898
1.80333	886914
1.80400	873689
1.80467	860259
1.80533	846655
1.80600	832908
1.80667	819045
1.80733	805093
1.80800	791077
1.80867	777020
1.80933	762944
1.81000	748869
1.81067	734813
1.81133	720794
1.81200	706828
1.81267	692930
1.81333	679114
1.81400	665392
1.81467	651775
1.81533	638276
1.81600	624903
1.81667	611665
1.81733	598571
1.81800	585628
1.81867	572843
1.81933	560221
1.82000	547767
1.82067	535488
1.82133	523385
1.82200	511464
1.82267	499727
1.82333	488177
1.82400	476815
1.82467	465644
1.82533	454666
1.82600	443880
1.82667	433288
1.82733	422890
1.82800	412687
1.82867	402678
1.82933	392862
1.83000	383240
1.83067	373809
1.83133	364570
1.83200	355520
1.83267	346659
1.83333	337985
1.83400	329496
1.83467	321190
1.83533	313066
1.83600	305121
1.83667	297353
1.83733	289760
1.83800	282339
1.83867	275089
1.83933	268007
1.84000	261090
1.84067	254336
1.84133	247743
1.84200	241307
1.84267	235026
1.84333	228898
1.84400	222919
1.84467	217088
1.84533	211402
1.84600	205857
1.84667	200451
1.84733	195182
1.84800	190046
1.84867	185042
1.84933	180166
1.85000	175416
1.85067	170790
1.85133	166284
1.85200	161896
1.85267	157624
1.85333	153465
1.85400	149416
1.85467	145476
1.85533	141641
1.85600	137909
1.85667	134279
1.85733	130747
1.85800	127311
1.85867	123969
1.85933	120718
1.86000	117558
1.86067	114484
1.86133	111496
1.86200	108591
1.86267	105766
1.86333	103021
1.86400	100353
1.86467	97760
1.86533	95239
1.86600	92791
1.86667	90411
1.86733	88099
1.86800	85853
1.86867	83671
1.86933	81551
1.87000	79492
1.87067	77492
1.87133	75550
1.87200	73664
1.87267	71832
1.87333	70052
1.87400	68325
1.87467	66647
1.87533	65019
1.87600	63438
1.87667	61902
1.87733	60412
1.87800	58965
1.87867	57561
1.87933	56198
1.88000	54875
1.88067	53590
1.88133	52344
1.88200	51134
1.88267	49960
1.88333	48821
1.88400	47716
1.88467	46643
1.88533	45602
1.88600	44593
1.88667	43613
1.88733	42663
1.88800	41741
1.88867	40847
1.88933	39979
1.89000	39138
1.89067	38322
1.89133	37530
1.89200	36763
1.89267	36019
1.89333	35297
1.89400	34597
1.89467	33918
1.89533	33260
1.89600	32623
1.89667	32004
1.89733	31405
1.89800	30824
1.89867	30260
1.89933	29714
1.90000	29185
1.90067	28672
1.90133	28175
1.90200	27694
1.90267	27227
1.90333	26774
1.90400	26336
1.90467	25911
1.90533	25499
1.90600	25099
1.90667	24713
1.90733	24338
1.90800	23975
1.90867	23623
1.90933	23282
1.91000	22951
1.91067	22631
1.91133	22321
1.91200	22020
1.91267	21729
1.91333	21447
1.91400	21173
1.91467	20908
1.91533	20651
1.91600	20402
1.91667	20161
1.91733	19927
1.91800	19700
1.91867	19480
1.91933	19267
1.92000	19061
1.92067	18860
1.92133	18666
1.92200	18478
1.92267	18295
1.92333	18118
1.92400	17947
1.92467	17780
1.92533	17619
1.92600	17462
1.92667	17310
1.92733	17163
1.92800	17019
1.92867	16881
1.92933	16746
1.93000	16615
1.93067	16488
1.93133	16365
1.93200	16245
1.93267	16129
1.93333	16016
1.93400	15907
1.93467	15800
1.93533	15697
1.93600	15597
1.93667	15499
1.93733	15405
1.93800	15313
1.93867	15223
1.93933	15136
1.94000	15052
1.94067	14970
1.94133	14890
1.94200	14812
1.94267	14736
1.94333	14663
1.94400	14591
1.94467	14521
1.94533	14453
1.94600	14387
1.94667	14322
1.94733	14260
1.94800	14198
1.94867	14139
1.94933	14081
1.95000	14024
1.95067	13969
1.95133	13915
1.95200	13863
1.95267	13812
1.95333	13762
1.95400	13713
1.95467	13666
1.95533	13620
1.95600	13575
1.95667	13531
1.95733	13488
1.95800	13446
1.95867	13405
1.95933	13366
1.96000	13327
1.96067	13289
1.96133	13252
1.96200	13215
1.96267	13180
1.96333	13145
1.96400	13112
1.96467	13079
1.96533	13046
1.96600	13015
1.96667	12984
1.96733	12954
1.96800	12924
1.96867	12895
1.96933	12866
1.97000	12838
1.97067	12811
1.97133	12784
1.97200	12758
1.97267	12732
1.97333	12707
1.97400	12682
1.97467	12658
1.97533	12634
1.97600	12610
1.97667	12588
1.97733	12565
1.97800	12543
1.97867	12522
1.97933	12500
1.98000	12480
1.98067	12459
1.98133	12439
1.98200	12420
1.98267	12400
1.98333	12382
1.98400	12363
1.98467	12345
1.98533	12327
1.98600	12310
1.98667	12292
1.98733	12276
1.98800	12259
1.98867	12243
1.98933	12227
1.99000	12211
1.99067	12196
1.99133	12180
1.99200	12165
1.99267	12151
1.99333	12136
1.99400	12122
1.99467	12107
1.99533	12093
1.99600	12080
1.99667	12066
1.99733	12053
1.99800	12040
1.99867	12027
1.99933	12014
2.00000	12001
2.00067	11989
2.00133	11977
2.00200	11965
2.00267	11953
2.00333	11941
2.00400	11930
2.00467	11918
2.00533	11907
2.00600	11896
2.00667	11885
2.00733	11874
2.00800	11863
2.00867	11852
2.00933	11842
2.01000	11831
2.01067	11821
2.01133	11810
2.01200	11800
2.01267	11790
2.01333	11780
2.01400	11770
2.01467	11760
2.01533	11750
2.01600	11740
2.01667	11730
2.01733	11720
2.01800	11711
2.01867	11701
2.01933	11691
2.02000	11682
2.02067	11672
2.02133	11663
2.02200	11654
2.02267	11644
2.02333	11635
2.02400	11626
2.02467	11617
2.02533	11608
2.02600	11599
2.02667	11590
2.02733	11582
2.02800	11573
2.02867	11564
2.02933	11556
2.03000	11547
2.03067	11539
2.03133	11530
2.03200	11522
2.03267	11513
2.03333	11505
2.03400	11497
2.03467	11489
2.03533	11481
2.03600	11473
2.03667	11465
2.03733	11457
2.03800	11449
2.03867	11442
2.03933	11434
2.04000	11426
2.04067	11419
2.04133	11411
2.04200	11404
2.04267	11396
2.04333	11389
2.04400	11381
2.04467	11374
2.04533	11367
2.04600	11359
2.04667	11352
2.04733	11345
2.04800	11338
2.04867	11331
2.04933	11324
2.05000	11317
2.05067	11310
2.05133	11303
2.05200	11296
2.05267	11289
2.05333	11282
2.05400	11275
2.05467	11269
2.05533	11262
2.05600	11255
2.05667	11249
2.05733	11242
2.05800	11236
2.05867	11229
2.05933	11223
2.06000	11216
2.06067	11210
2.06133	11203
2.06200	11197
2.06267	11191
2.06333	11185
2.06400	11179
2.06467	11173
2.06533	11166
2.06600	11160
2.06667	11154
2.06733	11148
2.06800	11143
2.06867	11137
2.06933	11131
2.07000	11125
2.07067	11119
2.07133	11113
2.07200	11108
2.07267	11102
2.07333	11096
2.07400	11091
2.07467	11085
2.07533	11080
2.07600	11074
2.07667	11069
2.07733	11063
2.07800	11058
2.07867	11052
2.07933	11047
2.08000	11041
2.08067	11036
2.08133	11030
2.08200	11025
2.08267	11019
2.08333	11014
2.08400	11008
2.08467	11003
2.08533	10998
2.08600	10992
2.08667	10987
2.08733	10982
2.08800	10976
2.08867	10971
2.08933	10966
2.09000	10961
2.09067	10955
2.09133	10950
2.09200	10945
2.09267	10939
2.09333	10934
2.09400	10929
2.09467	10924
2.09533	10919
2.09600	10913
2.09667	10908
2.09733	10903
2.09800	10898
2.09867	10893
2.09933	10887
2.10000	10882
2.10067	10877
2.10133	10872
2.10200	10867
2.10267	10862
2.10333	10857
2.10400	10852
2.10467	10847
2.10533	10842
2.10600	10837
2.10667	10833
2.10733	10828
2.10800	10823
2.10867	10818
2.10933	10813
2.11000	10809
2.11067	10804
2.11133	10799
2.11200	10794
2.11267	10789
2.11333	10785
2.11400	10780
2.11467	10775
2.11533	10770
2.11600	10766
2.11667	10761
2.11733	10756
2.11800	10751
2.11867	10746
2.11933	10742
2.12000	10737
2.12067	10732
2.12133	10727
2.12200	10723
2.12267	10718
2.12333	10713
2.12400	10708
2.12467	10704
2.12533	10699
2.12600	10694
2.12667	10689
2.12733	10685
2.12800	10680
2.12867	10675
2.12933	10671
2.13000	10666
2.13067	10661
2.13133	10657
2.13200	10652
2.13267	10648
2.13333	10643
2.13400	10638
2.13467	10633
2.13533	10629
2.13600	10624
2.13667	10619
2.13733	10614
2.13800	10610
2.13867	10605
2.13933	10600
2.14000	10596
2.14067	10591
2.14133	10587
2.14200	10582
2.14267	10578
2.14333	10573
2.14400	10569
2.14467	10564
2.14533	10559
2.14600	10555
2.14667	10550
2.14733	10546
2.14800	10541
2.14867	10537
2.14933	10532
2.15000	10528
2.15067	10523
2.15133	10519
2.15200	10514
2.15267	10510
2.15333	10506
2.15400	10501
2.15467	10497
2.15533	10492
2.15600	10488
2.15667	10483
2.15733	10479
2.15800	10474
2.15867	10470
2.15933	10466
2.16000	10461
2.16067	10457
2.16133	10452
2.16200	10448
2.16267	10444
2.16333	10439
2.16400	10435
2.16467	10431
2.16533	10426
2.16600	10422
2.16667	10417
2.16733	10413
2.16800	10408
2.16867	10404
2.16933	10400
2.17000	10395
2.17067	10391
2.17133	10386
2.17200	10382
2.17267	10378
2.17333	10374
2.17400	10370
2.17467	10365
2.17533	10361
2.17600	10357
2.17667	10353
2.17733	10349
2.17800	10345
2.17867	10341
2.17933	10337
2.18000	10333
2.18067	10329
2.18133	10325
2.18200	10321
2.18267	10318
2.18333	10314
2.18400	10310
2.18467	10306
2.18533	10302
2.18600	10299
2.18667	10295
2.18733	10291
2.18800	10287
2.18867	10284
2.18933	10280
2.19000	10277
2.19067	10273
2.19133	10269
2.19200	10266
2.19267	10262
2.19333	10259
2.19400	10255
2.19467	10252
2.19533	10248
2.19600	10245
2.19667	10241
2.19733	10238
2.19800	10234
2.19867	10231
2.19933	10227
2.20000	10224
2.20067	10220
2.20133	10217
2.20200	10214
2.20267	10211
2.20333	10207
2.20400	10204
2.20467	10201
2.20533	10198
2.20600	10194
2.20667	10191
2.20733	10188
2.20800	10185
2.20867	10182
2.20933	10179
2.21000	10176
2.21067	10173
2.21133	10170
2.21200	10167
2.21267	10165
2.21333	10162
2.21400	10159
2.21467	10157
2.21533	10154
2.21600	10152
2.21667	10149
2.21733	10147
2.21800	10145
2.21867	10142
2.21933	10140
2.22000	10138
2.22067	10135
2.22133	10133
2.22200	10131
2.22267	10129
2.22333	10127
2.22400	10124
2.22467	10122
2.22533	10120
2.22600	10118
2.22667	10116
2.22733	10114
2.22800	10112
2.22867	10109
2.22933	10107
2.23000	10105
2.23067	10103
2.23133	10101
2.23200	10099
2.23267	10097
2.23333	10094
2.23400	10092
2.23467	10090
2.23533	10088
2.23600	10086
2.23667	10083
2.23733	10081
2.23800	10079
2.23867	10076
2.23933	10074
2.24000	10072
2.24067	10069
2.24133	10067
2.24200	10064
2.24267	10061
2.24333	10059
2.24400	10056
2.24467	10053
2.24533	10051
2.24600	10048
2.24667	10045
2.24733	10043
2.24800	10040
2.24867	10038
2.24933	10035
2.25000	10032
2.25067	10030
2.25133	10027
2.25200	10025
2.25267	10022
2.25333	10020
2.25400	10017
2.25467	10015
2.25533	10012
2.25600	10009
2.25667	10007
2.25733	10004
2.25800	10001
2.25867	9999
2.25933	9996
2.26000	9993
2.26067	9991
2.26133	9988
2.26200	9985
2.26267	9982
2.26333	9979
2.26400	9976
2.26467	9973
2.26533	9970
2.26600	9967
2.26667	9964
2.26733	9961
2.26800	9958
2.26867	9955
2.26933	9952
2.27000	9948
2.27067	9945
2.27133	9942
2.27200	9939
2.27267	9936
2.27333	9933
2.27400	9930
2.27467	9927
2.27533	9924
2.27600	9920
2.27667	9917
2.27733	9914
2.27800	9911
2.27867	9908
2.27933	9905
2.28000	9902
2.28067	9899
2.28133	9896
2.28200	9893
2.28267	9890
2.28333	9887
2.28400	9883
2.28467	9880
2.28533	9877
2.28600	9874
2.28667	9871
2.28733	9868
2.28800	9865
2.28867	9862
2.28933	9859
2.29000	9856
2.29067	9853
2.29133	9850
2.29200	9847
2.29267	9844
2.29333	9841
2.29400	9838
2.29467	9835
2.29533	9833
2.29600	9830
2.29667	9827
2.29733	9824
2.29800	9821
2.29867	9819
2.29933	9816
2.30000	9813
2.30067	9811
2.30133	9808
2.30200	9806
2.30267	9803
2.30333	9801
2.30400	9798
2.30467	9796
2.30533	9794
2.30600	9792
2.30667	9789
2.30733	9787
2.30800	9785
2.30867	9783
2.30933	9781
2.31000	9779
2.31067	9776
2.31133	9774
2.31200	9772
2.31267	9770
2.31333	9768
2.31400	9766
2.31467	9764
2.31533	9762
2.31600	9760
2.31667	9758
2.31733	9757
2.31800	9755
2.31867	9753
2.31933	9751
2.32000	9749
2.32067	9748
2.32133	9746
2.32200	9744
2.32267	9742
2.32333	9740
2.32400	9739
2.32467	9737
2.32533	9735
2.32600	9734
2.32667	9732
2.32733	9730
2.32800	9729
2.32867	9727
2.32933	9726
2.33000	9724
2.33067	9722
2.33133	9721
2.33200	9719
2.33267	9718
2.33333	9717
2.33400	9715
2.33467	9714
2.33533	9712
2.33600	9711
2.33667	9710
2.33733	9708
2.33800	9707
2.33867	9706
2.33933	9704
2.34000	9703
2.34067	9702
2.34133	9700
2.34200	9699
2.34267	9698
2.34333	9697
2.34400	9696
2.34467	9694
2.34533	9693
2.34600	9692
2.34667	9691
2.34733	9690
2.34800	9690
2.34867	9689
2.34933	9688
2.35000	9688
2.35067	9687
2.35133	9687
2.35200	9687
2.35267	9686
2.35333	9686
2.35400	9686
2.35467	9686
2.35533	9686
2.35600	9686
2.35667	9686
2.35733	9686
2.35800	9686
2.35867	9686
2.35933	9686
2.36000	9686
2.36067	9686
2.36133	9686
2.36200	9686
2.36267	9686
2.36333	9686
2.36400	9686
2.36467	9685
2.36533	9685
2.36600	9685
2.36667	9685
2.36733	9685
2.36800	9684
2.36867	9684
2.36933	9684
2.37000	9683
2.37067	9683
2.37133	9683
2.37200	9682
2.37267	9682
2.37333	9681
2.37400	9681
2.37467	9680
2.37533	9680
2.37600	9679
2.37667	9679
2.37733	9678
2.37800	9677
2.37867	9676
2.37933	9675
2.38000	9674
2.38067	9673
2.38133	9672
2.38200	9671
2.38267	9669
2.38333	9668
2.38400	9666
2.38467	9665
2.38533	9663
2.38600	9661
2.38667	9659
2.38733	9657
2.38800	9656
2.38867	9654
2.38933	9651
2.39000	9649
2.39067	9647
2.39133	9645
2.39200	9643
2.39267	9641
2.39333	9638
2.39400	9636
2.39467	9634
2.39533	9631
2.39600	9629
2.39667	9627
2.39733	9624
2.39800	9622
2.39867	9619
2.39933	9617
2.40000	9615
2.40067	9612
2.40133	9610
2.40200	9607
2.40267	9605
2.40333	9602
2.40400	9600
2.40467	9597
2.40533	9594
2.40600	9592
2.40667	9589
2.40733	9586
2.40800	9584
2.40867	9581
2.40933	9579
2.41000	9576
2.41067	9574
2.41133	9571
2.41200	9569
2.41267	9566
2.41333	9564
2.41400	9562
2.41467	9559
2.41533	9557
2.41600	9555
2.41667	9552
2.41733	9550
2.41800	9548
2.41867	9546
2.41933	9543
2.42000	9541
2.42067	9539
2.42133	9537
2.42200	9534
2.42267	9532
2.42333	9530
2.42400	9528
2.42467	9525
2.42533	9523
2.42600	9521
2.42667	9518
2.42733	9516
2.42800	9513
2.42867	9511
2.42933	9509
2.43000	9506
2.43067	9503
2.43133	9501
2.43200	9498
2.43267	9496
2.43333	9493
2.43400	9491
2.43467	9488
2.43533	9485
2.43600	9483
2.43667	9480
2.43733	9477
2.43800	9474
2.43867	9471
2.43933	9469
2.44000	9466
2.44067	9463
2.44133	9460
2.44200	9457
2.44267	9454
2.44333	9451
2.44400	9448
2.44467	9444
2.44533	9441
2.44600	9438
2.44667	9434
2.44733	9431
2.44800	9428
2.44867	9424
2.44933	9421
2.45000	9417
2.45067	9414
2.45133	9410
2.45200	9407
2.45267	9403
2.45333	9399
2.45400	9396
2.45467	9392
2.45533	9388
2.45600	9385
2.45667	9381
2.45733	9378
2.45800	9374
2.45867	9370
2.45933	9367
2.46000	9363
2.46067	9359
2.46133	9356
2.46200	9352
2.46267	9349
2.46333	9345
2.46400	9341
2.46467	9338
2.46533	9334
2.46600	9330
2.46667	9327
2.46733	9323
2.46800	9320
2.46867	9316
2.46933	9313
2.47000	9309
2.47067	9306
2.47133	9302
2.47200	9299
2.47267	9295
2.47333	9292
2.47400	9288
2.47467	9285
2.47533	9281
2.47600	9278
2.47667	9274
2.47733	9271
2.47800	9267
2.47867	9264
2.47933	9260
2.48000	9257
2.48067	9253
2.48133	9250
2.48200	9247
2.48267	9243
2.48333	9240
2.48400	9236
2.48467	9233
2.48533	9230
2.48600	9227
2.48667	9223
2.48733	9220
2.48800	9217
2.48867	9213
2.48933	9210
2.49000	9206
2.49067	9203
2.49133	9200
2.49200	9196
2.49267	9193
2.49333	9189
2.49400	9186
2.49467	9182
2.49533	9179
2.49600	9176
2.49667	9172
2.49733	9169
2.49800	9165
2.49867	9162
2.49933	9158
2.50000	9155
2.50067	9151
2.50133	9148
2.50200	9144
2.50267	9141
2.50333	9137
2.50400	9134
2.50467	9130
2.50533	9127
2.50600	9123
2.50667	9120
2.50733	9116
2.50800	9113
2.50867	9109
2.50933	9106
2.51000	9103
2.51067	9099
2.51133	9096
2.51200	9092
2.51267	9089
2.51333	9085
2.51400	9082
2.51467	9078
2.51533	9075
2.51600	9071
2.51667	9067
2.51733	9064
2.51800	9060
2.51867	9056
2.51933	9053
2.52000	9049
2.52067	9046
2.52133	9042
2.52200	9038
2.52267	9035
2.52333	9031
2.52400	9027
2.52467	9024
2.52533	9020
2.52600	9016
2.52667	9013
2.52733	9009
2.52800	9006
2.52867	9003
2.52933	8999
2.53000	8996
2.53067	8992
2.53133	8989
2.53200	8985
2.53267	8982
2.53333	8979
2.53400	8975
2.53467	8972
2.53533	8969
2.53600	8965
2.53667	8962
2.53733	8959
2.53800	8955
2.53867	8952
2.53933	8949
2.54000	8945
2.54067	8942
2.54133	8939
2.54200	8936
2.54267	8933
2.54333	8929
2.54400	8926
2.54467	8923
2.54533	8920
2.54600	8917
2.54667	8914
2.54733	8911
2.54800	8908
2.54867	8905
2.54933	8902
2.55000	8899
2.55067	8896
2.55133	8893
2.55200	8890
2.55267	8887
2.55333	8884
2.55400	8882
2.55467	8879
2.55533	8876
2.55600	8873
2.55667	8870
2.55733	8868
2.55800	8865
2.55867	8862
2.55933	8859
2.56000	8857
2.56067	8854
2.56133	8851
2.56200	8848
2.56267	8846
2.56333	8843
2.56400	8840
2.56467	8838
2.56533	8835
2.56600	8832
2.56667	8829
2.56733	8827
2.56800	8824
2.56867	8821
2.56933	8819
2.57000	8816
2.57067	8814
2.57133	8811
2.57200	8808
2.57267	8806
2.57333	8803
2.57400	8801
2.57467	8798
2.57533	8796
2.57600	8793
2.57667	8791
2.57733	8789
2.57800	8786
2.57867	8784
2.57933	8781
2.58000	8779
2.58067	8776
2.58133	8773
2.58200	8771
2.58267	8768
2.58333	8766
2.58400	8763
2.58467	8761
2.58533	8758
2.58600	8756
2.58667	8753
2.58733	8750
2.58800	8748
2.58867	8746
2.58933	8743
2.59000	8741
2.59067	8738
2.59133	8736
2.59200	8733
2.59267	8731
2.59333	8729
2.59400	8726
2.59467	8724
2.59533	8722
2.59600	8720
2.59667	8717
2.59733	8715
2.59800	8713
2.59867	8711
2.59933	8708
2.60000	8706
2.60067	8704
2.60133	8702
2.60200	8700
2.60267	8698
2.60333	8695
2.60400	8693
2.60467	8691
2.60533	8689
2.60600	8687
2.60667	8685
2.60733	8683
2.60800	8681
2.60867	8679
2.60933	8676
2.61000	8674
2.61067	8672
2.61133	8670
2.61200	8668
2.61267	8666
2.61333	8664
2.61400	8662
2.61467	8660
2.61533	8657
2.61600	8655
2.61667	8653
2.61733	8651
2.61800	8649
2.61867	8647
2.61933	8644
2.62000	8642
2.62067	8640
2.62133	8638
2.62200	8636
2.62267	8633
2.62333	8631
2.62400	8629
2.62467	8627
2.62533	8625
2.62600	8623
2.62667	8620
2.62733	8618
2.62800	8616
2.62867	8614
2.62933	8612
2.63000	8610
2.63067	8607
2.63133	8605
2.63200	8603
2.63267	8601
2.63333	8598
2.63400	8596
2.63467	8594
2.63533	8591
2.63600	8589
2.63667	8586
2.63733	8584
2.63800	8582
2.63867	8579
2.63933	8577
2.64000	8574
2.64067	8572
2.64133	8570
2.64200	8567
2.64267	8565
2.64333	8562
2.64400	8560
2.64467	8558
2.64533	8555
2.64600	8553
2.64667	8551
2.64733	8548
2.64800	8546
2.64867	8544
2.64933	8541
2.65000	8539
2.65067	8536
2.65133	8534
2.65200	8532
2.65267	8529
2.65333	8527
2.65400	8524
2.65467	8522
2.65533	8520
2.65600	8517
2.65667	8515
2.65733	8512
2.65800	8510
2.65867	8507
2.65933	8505
2.66000	8502
2.66067	8500
2.66133	8497
2.66200	8495
2.66267	8493
2.66333	8490
2.66400	8488
2.66467	8486
2.66533	8483
2.66600	8481
2.66667	8479
2.66733	8476
2.66800	8474
2.66867	8472
2.66933	8469
2.67000	8467
2.67067	8465
2.67133	8462
2.67200	8460
2.67267	8458
2.67333	8455
2.67400	8453
2.67467	8451
2.67533	8448
2.67600	8446
2.67667	8444
2.67733	8441
2.67800	8439
2.67867	8437
2.67933	8435
2.68000	8432
2.68067	8430
2.68133	8428
2.68200	8426
2.68267	8423
2.68333	8421
2.68400	8419
2.68467	8417
2.68533	8415
2.68600	8413
2.68667	8410
2.68733	8408
2.68800	8406
2.68867	8404
2.68933	8402
2.69000	8400
2.69067	8398
2.69133	8396
2.69200	8394
2.69267	8391
2.69333	8389
2.69400	8387
2.69467	8385
2.69533	8383
2.69600	8381
2.69667	8379
2.69733	8377
2.69800	8375
2.69867	8373
2.69933	8371
2.70000	8369
2.70067	8367
2.70133	8365
2.70200	8363
2.70267	8361
2.70333	8359
2.70400	8357
2.70467	8355
2.70533	8353
2.70600	8350
2.70667	8348
2.70733	8346
2.70800	8344
2.70867	8342
2.70933	8340
2.71000	8338
2.71067	8336
2.71133	8334
2.71200	8332
2.71267	8330
2.71333	8328
2.71400	8326
2.71467	8323
2.71533	8321
2.71600	8319
2.71667	8317
2.71733	8315
2.71800	8313
2.71867	8310
2.71933	8308
2.72000	8306
2.72067	8304
2.72133	8302
2.72200	8300
2.72267	8297
2.72333	8295
2.72400	8293
2.72467	8291
2.72533	8288
2.72600	8286
2.72667	8284
2.72733	8282
2.72800	8279
2.72867	8277
2.72933	8275
2.73000	8273
2.73067	8271
2.73133	8268
2.73200	8266
2.73267	8264
2.73333	8262
2.73400	8260
2.73467	8258
2.73533	8256
2.73600	8253
2.73667	8251
2.73733	8249
2.73800	8247
2.73867	8245
2.73933	8243
2.74000	8240
2.74067	8238
2.74133	8236
2.74200	8234
2.74267	8232
2.74333	8230
2.74400	8228
2.74467	8226
2.74533	8224
2.74600	8222
2.74667	8220
2.74733	8218
2.74800	8216
2.74867	8214
2.74933	8212
2.75000	8210
2.75067	8208
2.75133	8206
2.75200	8204
2.75267	8203
2.75333	8201
2.75400	8199
2.75467	8197
2.75533	8196
2.75600	8194
2.75667	8192
2.75733	8191
2.75800	8189
2.75867	8187
2.75933	8186
2.76000	8184
2.76067	8183
2.76133	8182
2.76200	8180
2.76267	8179
2.76333	8178
2.76400	8176
2.76467	8175
2.76533	8174
2.76600	8173
2.76667	8172
2.76733	8171
2.76800	8170
2.76867	8169
2.76933	8168
2.77000	8167
2.77067	8166
2.77133	8165
2.77200	8164
2.77267	8164
2.77333	8163
2.77400	8162
2.77467	8161
2.77533	8161
2.77600	8160
2.77667	8159
2.77733	8159
2.77800	8158
2.77867	8158
2.77933	8157
2.78000	8157
2.78067	8156
2.78133	8156
2.78200	8156
2.78267	8155
2.78333	8155
2.78400	8155
2.78467	8154
2.78533	8154
2.78600	8154
2.78667	8154
2.78733	8153
2.78800	8153
2.78867	8153
2.78933	8153
2.79000	8153
2.79067	8153
2.79133	8153
2.79200	8153
2.79267	8153
2.79333	8153
2.79400	8153
2.79467	8153
2.79533	8153
2.79600	8153
2.79667	8153
2.79733	8153
2.79800	8153
2.79867	8153
2.79933	8153
2.80000	8153
2.80067	8153
2.80133	8153
2.80200	8153
2.80267	8153
2.80333	8153
2.80400	8153
2.80467	8153
2.80533	8153
2.80600	8153
2.80667	8153
2.80733	8153
2.80800	8153
2.80867	8153
2.80933	8153
2.81000	8153
2.81067	8153
2.81133	8152
2.81200	8152
2.81267	8152
2.81333	8152
2.81400	8151
2.81467	8151
2.81533	8151
2.81600	8150
2.81667	8150
2.81733	8149
2.81800	8149
2.81867	8148
2.81933	8148
2.82000	8147
2.82067	8147
2.82133	8146
2.82200	8146
2.82267	8145
2.82333	8144
2.82400	8144
2.82467	8143
2.82533	8142
2.82600	8142
2.82667	8141
2.82733	8140
2.82800	8139
2.82867	8138
2.82933	8138
2.83000	8137
2.83067	8136
2.83133	8135
2.83200	8134
2.83267	8133
2.83333	8131
2.83400	8130
2.83467	8129
2.83533	8128
2.83600	8127
2.83667	8126
2.83733	8125
2.83800	8123
2.83867	8122
2.83933	8121
2.84000	8120
2.84067	8118
2.84133	8117
2.84200	8116
2.84267	8115
2.84333	8113
2.84400	8112
2.84467	8111
2.84533	8110
2.84600	8109
2.84667	8107
2.84733	8106
2.84800	8105
2.84867	8104
2.84933	8103
2.85000	8102
2.85067	8100
2.85133	8099
2.85200	8098
2.85267	8097
2.85333	8096
2.85400	8095
2.85467	8094
2.85533	8093
2.85600	8092
2.85667	8091
2.85733	8091
2.85800	8090
2.85867	8089
2.85933	8088
2.86000	8087
2.86067	8086
2.86133	8086
2.86200	8085
2.86267	8084
2.86333	8084
2.86400	8083
2.86467	8083
2.86533	8082
2.86600	8081
2.86667	8081
2.86733	8080
2.86800	8080
2.86867	8079
2.86933	8079
2.87000	8078
2.87067	8078
2.87133	8078
2.87200	8077
2.87267	8077
2.87333	8077
2.87400	8076
2.87467	8076
2.87533	8076
2.87600	8076
2.87667	8076
2.87733	8076
2.87800	8076
2.87867	8076
2.87933	8076
2.88000	8077
2.88067	8077
2.88133	8078
2.88200	8078
2.88267	8079
2.88333	8080
2.88400	8081
2.88467	8082
2.88533	8083
2.88600	8084
2.88667	8086
2.88733	8087
2.88800	8089
2.88867	8091
2.88933	8093
2.89000	8095
2.89067	8097
2.89133	8100
2.89200	8102
2.89267	8105
2.89333	8108
2.89400	8110
2.89467	8114
2.89533	8117
2.89600	8120
2.89667	8124
2.89733	8127
2.89800	8131
2.89867	8135
2.89933	8139
2.90000	8143
2.90067	8147
2.90133	8151
2.90200	8155
2.90267	8159
2.90333	8164
2.90400	8168
2.90467	8172
2.90533	8177
2.90600	8181
2.90667	8185
2.90733	8189
2.90800	8194
2.90867	8198
2.90933	8202
2.91000	8206
2.91067	8210
2.91133	8214
2.91200	8218
2.91267	8222
2.91333	8225
2.91400	8229
2.91467	8232
2.91533	8235
2.91600	8238
2.91667	8241
2.91733	8243
2.91800	8246
2.91867	8248
2.91933	8249
2.92000	8251
2.92067	8252
2.92133	8253
2.92200	8254
2.92267	8254
2.92333	8254
2.92400	8254
2.92467	8253
2.92533	8253
2.92600	8252
2.92667	8250
2.92733	8249
2.92800	8247
2.92867	8245
2.92933	8242
2.93000	8240
2.93067	8237
2.93133	8234
2.93200	8230
2.93267	8227
2.93333	8223
2.93400	8219
2.93467	8215
2.93533	8210
2.93600	8206
2.93667	8201
2.93733	8196
2.93800	8190
2.93867	8185
2.93933	8179
2.94000	8173
2.94067	8167
2.94133	8161
2.94200	8155
2.94267	8148
2.94333	8141
2.94400	8135
2.94467	8128
2.94533	8121
2.94600	8114
2.94667	8106
2.94733	8099
2.94800	8092
2.94867	8084
2.94933	8077
2.95000	8069
2.95067	8062
2.95133	8054
2.95200	8046
2.95267	8038
2.95333	8031
2.95400	8023
2.95467	8015
2.95533	8007
2.95600	7999
2.95667	7992
2.95733	7984
2.95800	7976
2.95867	7969
2.95933	7961
2.96000	7953
2.96067	7946
2.96133	7938
2.96200	7931
2.96267	7923
2.96333	7916
2.96400	7908
2.96467	7901
2.96533	7894
2.96600	7887
2.96667	7879
2.96733	7872
2.96800	7865
2.96867	7858
2.96933	7852
2.97000	7845
2.97067	7838
2.97133	7831
2.97200	7825
2.97267	7818
2.97333	7812
2.97400	7806
2.97467	7800
2.97533	7793
2.97600	7787
2.97667	7781
2.97733	7775
2.97800	7769
2.97867	7764
2.97933	7758
2.98000	7752
2.98067	7746
2.98133	7741
2.98200	7735
2.98267	7730
2.98333	7725
2.98400	7720
2.98467	7714
2.98533	7709
2.98600	7704
2.98667	7699
2.98733	7695
2.98800	7690
2.98867	7685
2.98933	7680
2.99000	7675
2.99067	7671
2.99133	7666
2.99200	7662
2.99267	7657
2.99333	7652
2.99400	7648
2.99467	7644
2.99533	7639
2.99600	7635
2.99667	7631
2.99733	7627
2.99800	7623
2.99867	7619
2.99933	7615
3.00000	7611
3.00067	7607
3.00133	7603
3.00200	7599
3.00267	7595
3.00333	7591
3.00400	7587
3.00467	7584
3.00533	7580
3.00600	7576
3.00667	7573
3.00733	7569
3.00800	7565
3.00867	7562
3.00933	7558
3.01000	7555
3.01067	7551
3.01133	7548
3.01200	7544
3.01267	7541
3.01333	7537
3.01400	7534
3.01467	7531
3.01533	7527
3.01600	7524
3.01667	7521
3.01733	7517
3.01800	7514
3.01867	7511
3.01933	7508
3.02000	7505
3.02067	7501
3.02133	7498
3.02200	7495
3.02267	7492
3.02333	7489
3.02400	7486
3.02467	7483
3.02533	7480
3.02600	7477
3.02667	7475
3.02733	7472
3.02800	7469
3.02867	7466
3.02933	7464
3.03000	7461
3.03067	7458
3.03133	7456
3.03200	7454
3.03267	7451
3.03333	7449
3.03400	7446
3.03467	7444
3.03533	7442
3.03600	7439
3.03667	7437
3.03733	7435
3.03800	7432
3.03867	7430
3.03933	7428
3.04000	7426
3.04067	7423
3.04133	7421
3.04200	7419
3.04267	7417
3.04333	7415
3.04400	7413
3.04467	7411
3.04533	7409
3.04600	7407
3.04667	7405
3.04733	7404
3.04800	7402
3.04867	7400
3.04933	7398
3.05000	7396
3.05067	7395
3.05133	7393
3.05200	7391
3.05267	7390
3.05333	7388
3.05400	7386
3.05467	7385
3.05533	7383
3.05600	7382
3.05667	7381
3.05733	7379
3.05800	7378
3.05867	7376
3.05933	7375
3.06000	7374
3.06067	7372
3.06133	7371
3.06200	7370
3.06267	7368
3.06333	7367
3.06400	7366
3.06467	7365
3.06533	7363
3.06600	7362
3.06667	7361
3.06733	7360
3.06800	7359
3.06867	7358
3.06933	7357
3.07000	7356
3.07067	7355
3.07133	7354
3.07200	7353
3.07267	7352
3.07333	7352
3.07400	7351
3.07467	7350
3.07533	7350
3.07600	7349
3.07667	7348
3.07733	7347
3.07800	7347
3.07867	7346
3.07933	7345
3.08000	7345
3.08067	7344
3.08133	7343
3.08200	7343
3.08267	7342
3.08333	7341
3.08400	7341
3.08467	7340
3.08533	7339
3.08600	7339
3.08667	7338
3.08733	7338
3.08800	7337
3.08867	7336
3.08933	7336
3.09000	7335
3.09067	7335
3.09133	7334
3.09200	7333
3.09267	7333
3.09333	7332
3.09400	7331
3.09467	7330
3.09533	7330
3.09600	7329
3.09667	7328
3.09733	7327
3.09800	7327
3.09867	7326
3.09933	7325
3.10000	7324
3.10067	7323
3.10133	7322
3.10200	7321
3.10267	7321
3.10333	7320
3.10400	7319
3.10467	7318
3.10533	7317
3.10600	7316
3.10667	7314
3.10733	7313
3.10800	7312
3.10867	7311
3.10933	7310
3.11000	7309
3.11067	7307
3.11133	7306
3.11200	7305
3.11267	7304
3.11333	7302
3.11400	7301
3.11467	7300
3.11533	7298
3.11600	7297
3.11667	7295
3.11733	7294
3.11800	7293
3.11867	7291
3.11933	7290
3.12000	7288
3.12067	7287
3.12133	7285
3.12200	7284
3.12267	7283
3.12333	7281
3.12400	7280
3.12467	7278
3.12533	7277
3.12600	7275
3.12667	7274
3.12733	7272
3.12800	7270
3.12867	7269
3.12933	7267
3.13000	7266
3.13067	7265
3.13133	7263
3.13200	7262
3.13267	7260
3.13333	7259
3.13400	7257
3.13467	7256
3.13533	7255
3.13600	7253
3.13667	7252
3.13733	7250
3.13800	7249
3.13867	7247
3.13933	7246
3.14000	7245
3.14067	7243
3.14133	7242
3.14200	7240
3.14267	7239
3.14333	7238
3.14400	7236
3.14467	7235
3.14533	7234
3.14600	7232
3.14667	7231
3.14733	7230
3.14800	7228
3.14867	7227
3.14933	7226
3.15000	7225
3.15067	7223
3.15133	7222
3.15200	7221
3.15267	7220
3.15333	7219
3.15400	7218
3.15467	7217
3.15533	7216
3.15600	7215
3.15667	7213
3.15733	7212
3.15800	7211
3.15867	7210
3.15933	7209
3.16000	7208
3.16067	7207
3.16133	7206
3.16200	7205
3.16267	7204
3.16333	7203
3.16400	7202
3.16467	7200
3.16533	7199
3.16600	7198
3.16667	7197
3.16733	7196
3.16800	7196
3.16867	7195
3.16933	7194
3.17000	7193
3.17067	7192
3.17133	7191
3.17200	7190
3.17267	7190
3.17333	7189
3.17400	7188
3.17467	7187
3.17533	7187
3.17600	7186
3.17667	7185
3.17733	7185
3.17800	7184
3.17867	7184
3.17933	7183
3.18000	7182
3.18067	7182
3.18133	7181
3.18200	7181
3.18267	7180
3.18333	7180
3.18400	7180
3.18467	7179
3.18533	7179
3.18600	7179
3.18667	7178
3.18733	7178
3.18800	7178
3.18867	7177
3.18933	7177
3.19000	7177
3.19067	7177
3.19133	7176
3.19200	7176
3.19267	7176
3.19333	7176
3.19400	7176
3.19467	7175
3.19533	7175
3.19600	7175
3.19667	7175
3.19733	7174
3.19800	7174
3.19867	7174
3.19933	7174
3.20000	7174
3.20067	7174
3.20133	7173
3.20200	7173
3.20267	7173
3.20333	7173
3.20400	7173
3.20467	7173
3.20533	7173
3.20600	7173
3.20667	7173
3.20733	7173
3.20800	7173
3.20867	7173
3.20933	7173
3.21000	7173
3.21067	7173
3.21133	7173
3.21200	7173
3.21267	7173
3.21333	7174
3.21400	7174
3.21467	7174
3.21533	7174
3.21600	7174
3.21667	7175
3.21733	7175
3.21800	7175
3.21867	7176
3.21933	7176
3.22000	7176
3.22067	7176
3.22133	7177
3.22200	7177
3.22267	7177
3.22333	7178
3.22400	7178
3.22467	7178
3.22533	7178
3.22600	7179
3.22667	7179
3.22733	7179
3.22800	7180
3.22867	7180
3.22933	7181
3.23000	7181
3.23067	7182
3.23133	7182
3.23200	7183
3.23267	7183
3.23333	7184
3.23400	7184
3.23467	7185
3.23533	7185
3.23600	7186
3.23667	7186
3.23733	7187
3.23800	7187
3.23867	7188
3.23933	7188
3.24000	7189
3.24067	7189
3.24133	7190
3.24200	7190
3.24267	7191
3.24333	7192
3.24400	7192
3.24467	7193
3.24533	7193
3.24600	7194
3.24667	7194
3.24733	7195
3.24800	7196
3.24867	7196
3.24933	7197
3.25000	7197
3.25067	7198
3.25133	7198
3.25200	7199
3.25267	7200
3.25333	7200
3.25400	7201
3.25467	7201
3.25533	7202
3.25600	7203
3.25667	7203
3.25733	7204
3.25800	7205
3.25867	7206
3.25933	7207
3.26000	7207
3.26067	7208
3.26133	7209
3.26200	7210
3.26267	7211
3.26333	7211
3.26400	7212
3.26467	7213
3.26533	7214
3.26600	7214
3.26667	7215
3.26733	7216
3.26800	7217
3.26867	7217
3.26933	7218
3.27000	7219
3.27067	7220
3.27133	7220
3.27200	7221
3.27267	7222
3.27333	7222
3.27400	7223
3.27467	7224
3.27533	7224
3.27600	7225
3.27667	7226
3.27733	7226
3.27800	7227
3.27867	7227
3.27933	7228
3.28000	7229
3.28067	7229
3.28133	7230
3.28200	7230
3.28267	7231
3.28333	7231
3.28400	7232
3.28467	7233
3.28533	7233
3.28600	7234
3.28667	7234
3.28733	7235
3.28800	7235
3.28867	7236
3.28933	7237
3.29000	7237
3.29067	7238
3.29133	7238
3.29200	7239
3.29267	7239
3.29333	7240
3.29400	7240
3.29467	7241
3.29533	7242
3.29600	7242
3.29667	7243
3.29733	7243
3.29800	7244
3.29867	7244
3.29933	7245
3.30000	7245
3.30067	7246
3.30133	7246
3.30200	7247
3.30267	7247
3.30333	7248
3.30400	7248
3.30467	7249
3.30533	7249
3.30600	7250
3.30667	7250
3.30733	7251
3.30800	7251
3.30867	7251
3.30933	7252
3.31000	7252
3.31067	7252
3.31133	7253
3.31200	7253
3.31267	7253
3.31333	7254
3.31400	7254
3.31467	7254
3.31533	7254
3.31600	7255
3.31667	7255
3.31733	7255
3.31800	7255
3.31867	7255
3.31933	7256
3.32000	7256
3.32067	7256
3.32133	7256
3.32200	7256
3.32267	7257
3.32333	7257
3.32400	7257
3.32467	7257
3.32533	7257
3.32600	7257
3.32667	7257
3.32733	7257
3.32800	7257
3.32867	7257
3.32933	7257
3.33000	7258
3.33067	7258
3.33133	7258
3.33200	7258
3.33267	7258
3.33333	7258
3.33400	7258
3.33467	7258
3.33533	7258
3.33600	7258
3.33667	7258
3.33733	7258
3.33800	7259
3.33867	7259
3.33933	7259
3.34000	7259
3.34067	7259
3.34133	7259
3.34200	7259
3.34267	7259
3.34333	7259
3.34400	7259
3.34467	7259
3.34533	7259
3.34600	7259
3.34667	7259
3.34733	7259
3.34800	7259
3.34867	7259
3.34933	7259
3.35000	7258
3.35067	7258
3.35133	7258
3.35200	7258
3.35267	7258
3.35333	7257
3.35400	7257
3.35467	7257
3.35533	7256
3.35600	7256
3.35667	7256
3.35733	7256
3.35800	7255
3.35867	7255
3.35933	7255
3.36000	7254
3.36067	7254
3.36133	7253
3.36200	7253
3.36267	7253
3.36333	7252
3.36400	7252
3.36467	7252
3.36533	7252
3.36600	7251
3.36667	7251
3.36733	7250
3.36800	7250
3.36867	7250
3.36933	7249
3.37000	7249
3.37067	7248
3.37133	7248
3.37200	7248
3.37267	7247
3.37333	7247
3.37400	7246
3.37467	7246
3.37533	7245
3.37600	7245
3.37667	7245
3.37733	7244
3.37800	7244
3.37867	7243
3.37933	7243
3.38000	7242
3.38067	7242
3.38133	7241
3.38200	7241
3.38267	7240
3.38333	7239
3.38400	7239
3.38467	7238
3.38533	7238
3.38600	7237
3.38667	7236
3.38733	7236
3.38800	7235
3.38867	7234
3.38933	7234
3.39000	7233
3.39067	7232
3.39133	7231
3.39200	7230
3.39267	7229
3.39333	7229
3.39400	7228
3.39467	7227
3.39533	7226
3.39600	7225
3.39667	7224
3.39733	7223
3.39800	7222
3.39867	7221
3.39933	7220
3.40000	7219
3.40067	7218
3.40133	7216
3.40200	7215
3.40267	7214
3.40333	7213
3.40400	7212
3.40467	7210
3.40533	7209
3.40600	7208
3.40667	7207
3.40733	7205
3.40800	7204
3.40867	7202
3.40933	7201
3.41000	7200
3.41067	7198
3.41133	7197
3.41200	7195
3.41267	7194
3.41333	7192
3.41400	7191
3.41467	7189
3.41533	7188
3.41600	7187
3.41667	7185
3.41733	7184
3.41800	7182
3.41867	7180
3.41933	7179
3.42000	7177
3.42067	7176
3.42133	7174
3.42200	7173
3.42267	7171
3.42333	7169
3.42400	7168
3.42467	7166
3.42533	7165
3.42600	7164
3.42667	7162
3.42733	7161
3.42800	7159
3.42867	7158
3.42933	7156
3.43000	7155
3.43067	7154
3.43133	7152
3.43200	7151
3.43267	7150
3.43333	7148
3.43400	7147
3.43467	7146
3.43533	7144
3.43600	7143
3.43667	7142
3.43733	7141
3.43800	7140
3.43867	7139
3.43933	7137
3.44000	7136
3.44067	7135
3.44133	7134
3.44200	7133
3.44267	7132
3.44333	7131
3.44400	7130
3.44467	7129
3.44533	7128
3.44600	7127
3.44667	7126
3.44733	7125
3.44800	7124
3.44867	7123
3.44933	7122
3.45000	7122
3.45067	7121
3.45133	7120
3.45200	7120
3.45267	7119
3.45333	7119
3.45400	7118
3.45467	7118
3.45533	7118
3.45600	7117
3.45667	7117
3.45733	7117
3.45800	7117
3.45867	7117
3.45933	7117
3.46000	7117
3.46067	7117
3.46133	7117
3.46200	7117
3.46267	7117
3.46333	7118
3.46400	7118
3.46467	7118
3.46533	7119
3.46600	7119
3.46667	7120
3.46733	7121
3.46800	7121
3.46867	7122
3.46933	7123
3.47000	7123
3.47067	7124
3.47133	7125
3.47200	7126
3.47267	7127
3.47333	7128
3.47400	7130
3.47467	7131
3.47533	7132
3.47600	7133
3.47667	7135
3.47733	7136
3.47800	7138
3.47867	7140
3.47933	7141
3.48000	7143
3.48067	7145
3.48133	7147
3.48200	7149
3.48267	7151
3.48333	7153
3.48400	7155
3.48467	7157
3.48533	7159
3.48600	7162
3.48667	7164
3.48733	7167
3.48800	7169
3.48867	7172
3.48933	7175
3.49000	7178
3.49067	7181
3.49133	7184
3.49200	7187
3.49267	7190
3.49333	7194
3.49400	7197
3.49467	7201
3.49533	7205
3.49600	7209
3.49667	7213
3.49733	7218
3.49800	7222
3.49867	7227
3.49933	7232
3.50000	7237
3.50067	7242
3.50133	7248
3.50200	7254
3.50267	7260
3.50333	7266
3.50400	7272
3.50467	7279
3.50533	7287
3.50600	7294
3.50667	7302
3.50733	7310
3.50800	7319
3.50867	7328
3.50933	7337
3.51000	7347
3.51067	7358
3.51133	7368
3.51200	7380
3.51267	7391
3.51333	7404
3.51400	7417
3.51467	7430
3.51533	7444
3.51600	7459
3.51667	7474
3.51733	7490
3.51800	7507
3.51867	7524
3.51933	7542
3.52000	7561
3.52067	7581
3.52133	7601
3.52200	7622
3.52267	7645
3.52333	7667
3.52400	7691
3.52467	7716
3.52533	7742
3.52600	7768
3.52667	7796
3.52733	7824
3.52800	7854
3.52867	7884
3.52933	7916
3.53000	7948
3.53067	7982
3.53133	8016
3.53200	8052
3.53267	8089
3.53333	8127
3.53400	8166
3.53467	8206
3.53533	8247
3.53600	8290
3.53667	8334
3.53733	8378
3.53800	8425
3.53867	8472
3.53933	8520
3.54000	8570
3.54067	8621
3.54133	8673
3.54200	8726
3.54267	8781
3.54333	8837
3.54400	8894
3.54467	8952
3.54533	9012
3.54600	9073
3.54667	9135
3.54733	9198
3.54800	9263
3.54867	9328
3.54933	9395
3.55000	9463
3.55067	9532
3.55133	9602
3.55200	9674
3.55267	9746
3.55333	9820
3.55400	9894
3.55467	9970
3.55533	10047
3.55600	10124
3.55667	10203
3.55733	10283
3.55800	10364
3.55867	10446
3.55933	10529
3.56000	10613
3.56067	10698
3.56133	10784
3.56200	10871
3.56267	10959
3.56333	11048
3.56400	11139
3.56467	11230
3.56533	11323
3.56600	11416
3.56667	11511
3.56733	11608
3.56800	11705
3.56867	11804
3.56933	11904
3.57000	12006
3.57067	12110
3.57133	12214
3.57200	12321
3.57267	12429
3.57333	12539
3.57400	12650
3.57467	12764
3.57533	12879
3.57600	12996
3.57667	13115
3.57733	13236
3.57800	13359
3.57867	13484
3.57933	13611
3.58000	13741
3.58067	13872
3.58133	14006
3.58200	14142
3.58267	14281
3.58333	14423
3.58400	14567
3.58467	14714
3.58533	14863
3.58600	15016
3.58667	15171
3.58733	15330
3.58800	15491
3.58867	15655
3.58933	15822
3.59000	15992
3.59067	16164
3.59133	16339
3.59200	16517
3.59267	16698
3.59333	16881
3.59400	17066
3.59467	17255
3.59533	17445
3.59600	17638
3.59667	17833
3.59733	18030
3.59800	18230
3.59867	18431
3.59933	18634
3.60000	18838
3.60067	19044
3.60133	19252
3.60200	19461
3.60267	19671
3.60333	19882
3.60400	20094
3.60467	20307
3.60533	20521
3.60600	20734
3.60667	20948
3.60733	21162
3.60800	21375
3.60867	21588
3.60933	21800
3.61000	22011
3.61067	22221
3.61133	22429
3.61200	22636
3.61267	22841
3.61333	23044
3.61400	23245
3.61467	23443
3.61533	23639
3.61600	23832
3.61667	24022
3.61733	24209
3.61800	24393
3.61867	24572
3.61933	24748
3.62000	24920
3.62067	25087
3.62133	25250
3.62200	25408
3.62267	25560
3.62333	25708
3.62400	25849
3.62467	25985
3.62533	26115
3.62600	26239
3.62667	26357
3.62733	26468
3.62800	26572
3.62867	26670
3.62933	26760
3.63000	26844
3.63067	26920
3.63133	26990
3.63200	27051
3.63267	27106
3.63333	27153
3.63400	27192
3.63467	27224
3.63533	27248
3.63600	27264
3.63667	27273
3.63733	27274
3.63800	27268
3.63867	27254
3.63933	27232
3.64000	27203
3.64067	27167
3.64133	27124
3.64200	27073
3.64267	27016
3.64333	26952
3.64400	26880
3.64467	26803
3.64533	26719
3.64600	26628
3.64667	26531
3.64733	26428
3.64800	26319
3.64867	26204
3.64933	26084
3.65000	25959
3.65067	25828
3.65133	25692
3.65200	25552
3.65267	25406
3.65333	25257
3.65400	25103
3.65467	24945
3.65533	24784
3.65600	24618
3.65667	24450
3.65733	24277
3.65800	24102
3.65867	23924
3.65933	23744
3.66000	23560
3.66067	23375
3.66133	23187
3.66200	22998
3.66267	22807
3.66333	22614
3.66400	22420
3.66467	22224
3.66533	22028
3.66600	21831
3.66667	21633
3.66733	21434
3.66800	21235
3.66867	21035
3.66933	20836
3.67000	20636
3.67067	20437
3.67133	20238
3.67200	20040
3.67267	19842
3.67333	19645
3.67400	19448
3.67467	19253
3.67533	19058
3.67600	18865
3.67667	18673
3.67733	18482
3.67800	18292
3.67867	18105
3.67933	17918
3.68000	17734
3.68067	17551
3.68133	17370
3.68200	17190
3.68267	17013
3.68333	16838
3.68400	16664
3.68467	16492
3.68533	16323
3.68600	16155
3.68667	15990
3.68733	15827
3.68800	15666
3.68867	15507
3.68933	15350
3.69000	15195
3.69067	15043
3.69133	14893
3.69200	14745
3.69267	14599
3.69333	14455
3.69400	14314
3.69467	14175
3.69533	14038
3.69600	13903
3.69667	13771
3.69733	13641
3.69800	13512
3.69867	13386
3.69933	13263
3.70000	13141
3.70067	13022
3.70133	12904
3.70200	12789
3.70267	12676
3.70333	12564
3.70400	12455
3.70467	12348
3.70533	12243
3.70600	12140
3.70667	12039
3.70733	11939
3.70800	11842
3.70867	11747
3.70933	11653
3.71000	11562
3.71067	11472
3.71133	11384
3.71200	11298
3.71267	11213
3.71333	11130
3.71400	11049
3.71467	10969
3.71533	10891
3.71600	10815
3.71667	10740
3.71733	10667
3.71800	10595
3.71867	10524
3.71933	10455
3.72000	10387
3.72067	10321
3.72133	10256
3.72200	10192
3.72267	10130
3.72333	10069
3.72400	10009
3.72467	9951
3.72533	9893
3.72600	9837
3.72667	9782
3.72733	9729
3.72800	9676
3.72867	9624
3.72933	9574
3.73000	9524
3.73067	9476
3.73133	9429
3.73200	9382
3.73267	9337
3.73333	9292
3.73400	9249
3.73467	9206
3.73533	9164
3.73600	9123
3.73667	9083
3.73733	9044
3.73800	9006
3.73867	8968
3.73933	8931
3.74000	8895
3.74067	8860
3.74133	8825
3.74200	8792
3.74267	8758
3.74333	8726
3.74400	8694
3.74467	8663
3.74533	8633
3.74600	8603
3.74667	8573
3.74733	8545
3.74800	8517
3.74867	8489
3.74933	8462
3.75000	8435
3.75067	8409
3.75133	8384
3.75200	8358
3.75267	8334
3.75333	8309
3.75400	8286
3.75467	8262
3.75533	8240
3.75600	8217
3.75667	8195
3.75733	8173
3.75800	8152
3.75867	8132
3.75933	8111
3.76000	8091
3.76067	8072
3.76133	8052
3.76200	8033
3.76267	8015
3.76333	7997
3.76400	7979
3.76467	7961
3.76533	7944
3.76600	7927
3.76667	7911
3.76733	7894
3.76800	7878
3.76867	7863
3.76933	7847
3.77000	7832
3.77067	7817
3.77133	7802
3.77200	7788
3.77267	7774
3.77333	7760
3.77400	7747
3.77467	7733
3.77533	7720
3.77600	7707
3.77667	7694
3.77733	7682
3.77800	7670
3.77867	7658
3.77933	7646
3.78000	7634
3.78067	7623
3.78133	7611
3.78200	7600
3.78267	7589
3.78333	7578
3.78400	7568
3.78467	7557
3.78533	7547
3.78600	7537
3.78667	7527
3.78733	7517
3.78800	7507
3.78867	7498
3.78933	7489
3.79000	7479
3.79067	7470
3.79133	7461
3.79200	7453
3.79267	7444
3.79333	7436
3.79400	7427
3.79467	7419
3.79533	7411
3.79600	7402
3.79667	7394
3.79733	7387
3.79800	7379
3.79867	7371
3.79933	7363
3.80000	7356
3.80067	7348
3.80133	7341
3.80200	7334
3.80267	7327
3.80333	7319
3.80400	7312
3.80467	7305
3.80533	7298
3.80600	7291
3.80667	7284
3.80733	7278
3.80800	7271
3.80867	7264
3.80933	7258
3.81000	7251
3.81067	7245
3.81133	7238
3.81200	7232
3.81267	7225
3.81333	7219
3.81400	7213
3.81467	7206
3.81533	7200
3.81600	7194
3.81667	7188
3.81733	7182
3.81800	7176
3.81867	7169
3.81933	7163
3.82000	7158
3.82067	7152
3.82133	7146
3.82200	7140
3.82267	7134
3.82333	7129
3.82400	7123
3.82467	7117
3.82533	7112
3.82600	7106
3.82667	7101
3.82733	7095
3.82800	7090
3.82867	7084
3.82933	7079
3.83000	7074
3.83067	7068
3.83133	7063
3.83200	7058
3.83267	7053
3.83333	7048
3.83400	7043
3.83467	7038
3.83533	7033
3.83600	7028
3.83667	7023
3.83733	7019
3.83800	7014
3.83867	7009
3.83933	7005
3.84000	7000
3.84067	6996
3.84133	6992
3.84200	6987
3.84267	6983
3.84333	6978
3.84400	6974
3.84467	6970
3.84533	6966
3.84600	6962
3.84667	6958
3.84733	6954
3.84800	6950
3.84867	6946
3.84933	6942
3.85000	6938
3.85067	6934
3.85133	6930
3.85200	6926
3.85267	6923
3.85333	6919
3.85400	6915
3.85467	6912
3.85533	6908
3.85600	6904
3.85667	6901
3.85733	6897
3.85800	6893
3.85867	6890
3.85933	6886
3.86000	6883
3.86067	6879
3.86133	6876
3.86200	6872
3.86267	6869
3.86333	6866
3.86400	6862
3.86467	6859
3.86533	6855
3.86600	6852
3.86667	6848
3.86733	6845
3.86800	6842
3.86867	6838
3.86933	6835
3.87000	6832
3.87067	6829
3.87133	6825
3.87200	6822
3.87267	6819
3.87333	6816
3.87400	6813
3.87467	6810
3.87533	6807
3.87600	6804
3.87667	6801
3.87733	6798
3.87800	6796
3.87867	6793
3.87933	6790
3.88000	6787
3.88067	6784
3.88133	6781
3.88200	6778
3.88267	6776
3.88333	6773
3.88400	6770
3.88467	6767
3.88533	6764
3.88600	6762
3.88667	6759
3.88733	6756
3.88800	6753
3.88867	6751
3.88933	6748
3.89000	6745
3.89067	6742
3.89133	6740
3.89200	6737
3.89267	6734
3.89333	6732
3.89400	6729
3.89467	6727
3.89533	6724
3.89600	6721
3.89667	6719
3.89733	6716
3.89800	6714
3.89867	6711
3.89933	6709
3.90000	6706
3.90067	6704
3.90133	6701
3.90200	6699
3.90267	6696
3.90333	6694
3.90400	6691
3.90467	6689
3.90533	6686
3.90600	6684
3.90667	6682
3.90733	6679
3.90800	6677
3.90867	6674
3.90933	6672
3.91000	6670
3.91067	6667
3.91133	6665
3.91200	6662
3.91267	6660
3.91333	6658
3.91400	6655
3.91467	6653
3.91533	6650
3.91600	6648
3.91667	6646
3.91733	6643
3.91800	6641
3.91867	6639
3.91933	6637
3.92000	6634
3.92067	6632
3.92133	6630
3.92200	6628
3.92267	6626
3.92333	6623
3.92400	6621
3.92467	6619
3.92533	6617
3.92600	6615
3.92667	6613
3.92733	6611
3.92800	6608
3.92867	6606
3.92933	6604
3.93000	6602
3.93067	6599
3.93133	6597
3.93200	6595
3.93267	6592
3.93333	6590
3.93400	6588
3.93467	6585
3.93533	6583
3.93600	6581
3.93667	6578
3.93733	6576
3.93800	6574
3.93867	6571
3.93933	6569
3.94000	6567
3.94067	6565
3.94133	6562
3.94200	6560
3.94267	6558
3.94333	6556
3.94400	6553
3.94467	6551
3.94533	6549
3.94600	6546
3.94667	6544
3.94733	6542
3.94800	6540
3.94867	6538
3.94933	6535
3.95000	6533
3.95067	6531
3.95133	6529
3.95200	6527
3.95267	6525
3.95333	6523
3.95400	6521
3.95467	6519
3.95533	6517
3.95600	6515
3.95667	6513
3.95733	6511
3.95800	6509
3.95867	6507
3.95933	6505
3.96000	6503
3.96067	6501
3.96133	6499
3.96200	6498
3.96267	6496
3.96333	6494
3.96400	6492
3.96467	6490
3.96533	6489
3.96600	6487
3.96667	6485
3.96733	6484
3.96800	6482
3.96867	6481
3.96933	6479
3.97000	6478
3.97067	6476
3.97133	6475
3.97200	6473
3.97267	6472
3.97333	6471
3.97400	6469
3.97467	6468
3.97533	6467
3.97600	6465
3.97667	6464
3.97733	6463
3.97800	6462
3.97867	6460
3.97933	6459
3.98000	6458
3.98067	6457
3.98133	6455
3.98200	6454
3.98267	6453
3.98333	6452
3.98400	6451
3.98467	6450
3.98533	6449
3.98600	6448
3.98667	6447
3.98733	6446
3.98800	6445
3.98867	6444
3.98933	6443
3.99000	6442
3.99067	6441
3.99133	6440
3.99200	6439
3.99267	6438
3.99333	6437
3.99400	6436
3.99467	6435
3.99533	6435
3.99600	6434
3.99667	6433
3.99733	6432
3.99800	6431
3.99867	6430
3.99933	6430
4.00000	6429
4.00067	6428
4.00133	6427
4.00200	6427
4.00267	6426
4.00333	6425
4.00400	6425
4.00467	6424
4.00533	6423
4.00600	6423
4.00667	6422
4.00733	6422
4.00800	6421
4.00867	6420
4.00933	6420
4.01000	6419
4.01067	6419
4.01133	6418
4.01200	6418
4.01267	6417
4.01333	6417
4.01400	6416
4.01467	6416
4.01533	6416
4.01600	6415
4.01667	6415
4.01733	6414
4.01800	6414
4.01867	6413
4.01933	6413
4.02000	6412
4.02067	6412
4.02133	6411
4.02200	6411
4.02267	6410
4.02333	6410
4.02400	6409
4.02467	6409
4.02533	6408
4.02600	6408
4.02667	6407
4.02733	6407
4.02800	6407
4.02867	6406
4.02933	6406
4.03000	6405
4.03067	6405
4.03133	6404
4.03200	6404
4.03267	6404
4.03333	6403
4.03400	6403
4.03467	6402
4.03533	6402
4.03600	6402
4.03667	6401
4.03733	6401
4.03800	6400
4.03867	6400
4.03933	6400
4.04000	6400
4.04067	6399
4.04133	6399
4.04200	6399
4.04267	6399
4.04333	6399
4.04400	6399
4.04467	6399
4.04533	6398
4.04600	6398
4.04667	6398
4.04733	6398
4.04800	6398
4.04867	6398
4.04933	6398
4.05000	6398
4.05067	6398
4.05133	6398
4.05200	6398
4.05267	6398
4.05333	6398
4.05400	6398
4.05467	6399
4.05533	6399
4.05600	6399
4.05667	6400
4.05733	6400
4.05800	6401
4.05867	6401
4.05933	6402
4.06000	6402
4.06067	6403
4.06133	6404
4.06200	6404
4.06267	6405
4.06333	6406
4.06400	6407
4.06467	6408
4.06533	6409
4.06600	6410
4.06667	6411
4.06733	6413
4.06800	6414
4.06867	6415
4.06933	6416
4.07000	6418
4.07067	6419
4.07133	6421
4.07200	6423
4.07267	6424
4.07333	6426
4.07400	6428
4.07467	6430
4.07533	6433
4.07600	6435
4.07667	6437
4.07733	6440
4.07800	6442
4.07867	6445
4.07933	6448
4.08000	6451
4.08067	6454
4.08133	6457
4.08200	6460
4.08267	6463
4.08333	6467
4.08400	6470
4.08467	6474
4.08533	6477
4.08600	6481
4.08667	6485
4.08733	6489
4.08800	6493
4.08867	6497
4.08933	6502
4.09000	6506
4.09067	6511
4.09133	6515
4.09200	6520
4.09267	6525
4.09333	6530
4.09400	6535
4.09467	6540
4.09533	6546
4.09600	6551
4.09667	6557
4.09733	6562
4.09800	6568
4.09867	6574
4.09933	6580
4.10000	6586
4.10067	6592
4.10133	6598
4.10200	6605
4.10267	6611
4.10333	6618
4.10400	6624
4.10467	6631
4.10533	6638
4.10600	6645
4.10667	6652
4.10733	6659
4.10800	6666
4.10867	6673
4.10933	6681
4.11000	6688
4.11067	6696
4.11133	6703
4.11200	6711
4.11267	6719
4.11333	6727
4.11400	6735
4.11467	6742
4.11533	6750
4.11600	6758
4.11667	6766
4.11733	6775
4.11800	6783
4.11867	6791
4.11933	6799
4.12000	6807
4.12067	6815
4.12133	6824
4.12200	6832
4.12267	6840
4.12333	6848
4.12400	6857
4.12467	6865
4.12533	6873
4.12600	6882
4.12667	6890
4.12733	6898
4.12800	6906
4.12867	6914
4.12933	6923
4.13000	6931
4.13067	6939
4.13133	6947
4.13200	6955
4.13267	6962
4.13333	6970
4.13400	6978
4.13467	6985
4.13533	6993
4.13600	7000
4.13667	7007
4.13733	7015
4.13800	7022
4.13867	7029
4.13933	7036
4.14000	7043
4.14067	7050
4.14133	7056
4.14200	7063
4.14267	7070
4.14333	7076
4.14400	7083
4.14467	7090
4.14533	7096
4.14600	7102
4.14667	7109
4.14733	7115
4.14800	7121
4.14867	7127
4.14933	7133
4.15000	7139
4.15067	7145
4.15133	7151
4.15200	7157
4.15267	7163
4.15333	7168
4.15400	7174
4.15467	7180
4.15533	7186
4.15600	7191
4.15667	7197
4.15733	7203
4.15800	7208
4.15867	7214
4.15933	7220
4.16000	7226
4.16067	7232
4.16133	7237
4.16200	7243
4.16267	7249
4.16333	7255
4.16400	7262
4.16467	7268
4.16533	7274
4.16600	7280
4.16667	7287
4.16733	7294
4.16800	7300
4.16867	7307
4.16933	7314
4.17000	7322
4.17067	7329
4.17133	7337
4.17200	7345
4.17267	7353
4.17333	7361
4.17400	7370
4.17467	7379
4.17533	7388
4.17600	7397
4.17667	7407
4.17733	7417
4.17800	7427
4.17867	7438
4.17933	7449
4.18000	7461
4.18067	7473
4.18133	7485
4.18200	7498
4.18267	7511
4.18333	7525
4.18400	7540
4.18467	7555
4.18533	7571
4.18600	7587
4.18667	7604
4.18733	7622
4.18800	7640
4.18867	7659
4.18933	7679
4.19000	7700
4.19067	7722
4.19133	7745
4.19200	7769
4.19267	7794
4.19333	7820
4.19400	7847
4.19467	7875
4.19533	7904
4.19600	7935
4.19667	7967
4.19733	8001
4.19800	8036
4.19867	8073
4.19933	8111
4.20000	8152
4.20067	8194
4.20133	8237
4.20200	8283
4.20267	8331
4.20333	8381
4.20400	8433
4.20467	8488
4.20533	8545
4.20600	8605
4.20667	8668
4.20733	8733
4.20800	8801
4.20867	8872
4.20933	8946
4.21000	9023
4.21067	9104
4.21133	9188
4.21200	9276
4.21267	9367
4.21333	9462
4.21400	9562
4.21467	9665
4.21533	9773
4.21600	9886
4.21667	10003
4.21733	10125
4.21800	10251
4.21867	10383
4.21933	10521
4.22000	10663
4.22067	10811
4.22133	10965
4.22200	11124
4.22267	11290
4.22333	11461
4.22400	11639
4.22467	11823
4.22533	12014
4.22600	12212
4.22667	12416
4.22733	12629
4.22800	12848
4.22867	13075
4.22933	13310
4.23000	13553
4.23067	13804
4.23133	14064
4.23200	14331
4.23267	14608
4.23333	14893
4.23400	15187
4.23467	15490
4.23533	15802
4.23600	16123
4.23667	16454
4.23733	16794
4.23800	17145
4.23867	17505
4.23933	17875
4.24000	18255
4.24067	18646
4.24133	19048
4.24200	19461
4.24267	19885
4.24333	20320
4.24400	20767
4.24467	21225
4.24533	21696
4.24600	22179
4.24667	22674
4.24733	23181
4.24800	23701
4.24867	24234
4.24933	24778
4.25000	25335
4.25067	25905
4.25133	26486
4.25200	27080
4.25267	27686
4.25333	28305
4.25400	28936
4.25467	29579
4.25533	30234
4.25600	30902
4.25667	31582
4.25733	32275
4.25800	32979
4.25867	33696
4.25933	34424
4.26000	35164
4.26067	35914
4.26133	36674
4.26200	37445
4.26267	38225
4.26333	39014
4.26400	39812
4.26467	40618
4.26533	41433
4.26600	42256
4.26667	43088
4.26733	43927
4.26800	44774
4.26867	45628
4.26933	46490
4.27000	47358
4.27067	48235
4.27133	49117
4.27200	50007
4.27267	50902
4.27333	51803
4.27400	52709
4.27467	53621
4.27533	54536
4.27600	55456
4.27667	56378
4.27733	57304
4.27800	58232
4.27867	59161
4.27933	60091
4.28000	61022
4.28067	61953
4.28133	62885
4.28200	63816
4.28267	64746
4.28333	65677
4.28400	66607
4.28467	67536
4.28533	68465
4.28600	69393
4.28667	70320
4.28733	71245
4.28800	72168
4.28867	73089
4.28933	74007
4.29000	74921
4.29067	75831
4.29133	76737
4.29200	77638
4.29267	78533
4.29333	79423
4.29400	80307
4.29467	81184
4.29533	82054
4.29600	82916
4.29667	83770
4.29733	84615
4.29800	85450
4.29867	86276
4.29933	87091
4.30000	87894
4.30067	88686
4.30133	89466
4.30200	90233
4.30267	90988
4.30333	91728
4.30400	92455
4.30467	93168
4.30533	93866
4.30600	94550
4.30667	95218
4.30733	95870
4.30800	96508
4.30867	97130
4.30933	97738
4.31000	98329
4.31067	98906
4.31133	99467
4.31200	100012
4.31267	100540
4.31333	101052
4.31400	101547
4.31467	102025
4.31533	102486
4.31600	102929
4.31667	103354
4.31733	103762
4.31800	104151
4.31867	104523
4.31933	104877
4.32000	105213
4.32067	105532
4.32133	105832
4.32200	106114
4.32267	106378
4.32333	106625
4.32400	106853
4.32467	107063
4.32533	107256
4.32600	107431
4.32667	107589
4.32733	107728
4.32800	107851
4.32867	107956
4.32933	108044
4.33000	108115
4.33067	108168
4.33133	108205
4.33200	108226
4.33267	108230
4.33333	108217
4.33400	108189
4.33467	108144
4.33533	108083
4.33600	108006
4.33667	107913
4.33733	107804
4.33800	107678
4.33867	107538
4.33933	107381
4.34000	107210
4.34067	107024
4.34133	106823
4.34200	106608
4.34267	106378
4.34333	106134
4.34400	105876
4.34467	105605
4.34533	105319
4.34600	105020
4.34667	104708
4.34733	104382
4.34800	104044
4.34867	103694
4.34933	103331
4.35000	102956
4.35067	102570
4.35133	102173
4.35200	101765
4.35267	101347
4.35333	100918
4.35400	100479
4.35467	100031
4.35533	99572
4.35600	99104
4.35667	98627
4.35733	98141
4.35800	97646
4.35867	97143
4.35933	96632
4.36000	96113
4.36067	95587
4.36133	95053
4.36200	94513
4.36267	93965
4.36333	93411
4.36400	92851
4.36467	92285
4.36533	91713
4.36600	91135
4.36667	90553
4.36733	89965
4.36800	89373
4.36867	88776
4.36933	88175
4.37000	87569
4.37067	86960
4.37133	86346
4.37200	85729
4.37267	85108
4.37333	84485
4.37400	83858
4.37467	83229
4.37533	82597
4.37600	81963
4.37667	81327
4.37733	80689
4.37800	80050
4.37867	79410
4.37933	78769
4.38000	78127
4.38067	77485
4.38133	76842
4.38200	76199
4.38267	75557
4.38333	74914
4.38400	74273
4.38467	73631
4.38533	72991
4.38600	72352
4.38667	71714
4.38733	71077
4.38800	70442
4.38867	69809
4.38933	69178
4.39000	68549
4.39067	67922
4.39133	67298
4.39200	66677
4.39267	66058
4.39333	65443
4.39400	64831
4.39467	64222
4.39533	63617
4.39600	63015
4.39667	62417
4.39733	61823
4.39800	61233
4.39867	60647
4.39933	60065
4.40000	59487
4.40067	58914
4.40133	58345
4.40200	57780
4.40267	57220
4.40333	56665
4.40400	56115
4.40467	55569
4.40533	55028
4.40600	54492
4.40667	53961
4.40733	53436
4.40800	52915
4.40867	52399
4.40933	51889
4.41000	51384
4.41067	50885
4.41133	50390
4.41200	49902
4.41267	49418
4.41333	48941
4.41400	48468
4.41467	48001
4.41533	47539
4.41600	47083
4.41667	46632
4.41733	46187
4.41800	45747
4.41867	45312
4.41933	44882
4.42000	44459
4.42067	44040
4.42133	43627
4.42200	43219
4.42267	42816
4.42333	42418
4.42400	42026
4.42467	41639
4.42533	41257
4.42600	40880
4.42667	40508
4.42733	40142
4.42800	39780
4.42867	39424
4.42933	39072
4.43000	38725
4.43067	38384
4.43133	38047
4.43200	37715
4.43267	37387
4.43333	37065
4.43400	36747
4.43467	36434
4.43533	36126
4.43600	35822
4.43667	35523
4.43733	35229
4.43800	34939
4.43867	34654
4.43933	34373
4.44000	34097
4.44067	33826
4.44133	33559
4.44200	33296
4.44267	33038
4.44333	32785
4.44400	32535
4.44467	32290
4.44533	32049
4.44600	31812
4.44667	31580
4.44733	31351
4.44800	31127
4.44867	30906
4.44933	30690
4.45000	30477
4.45067	30268
4.45133	30063
4.45200	29862
4.45267	29665
4.45333	29471
4.45400	29281
4.45467	29095
4.45533	28912
4.45600	28732
4.45667	28556
4.45733	28383
4.45800	28214
4.45867	28048
4.45933	27886
4.46000	27726
4.46067	27570
4.46133	27417
4.46200	27267
4.46267	27120
4.46333	26977
4.46400	26836
4.46467	26699
4.46533	26564
4.46600	26433
4.46667	26304
4.46733	26178
4.46800	26056
4.46867	25935
4.46933	25818
4.47000	25704
4.47067	25592
4.47133	25483
4.47200	25376
4.47267	25272
4.47333	25171
4.47400	25072
4.47467	24976
4.47533	24882
4.47600	24790
4.47667	24701
4.47733	24614
4.47800	24529
4.47867	24447
4.47933	24367
4.48000	24288
4.48067	24212
4.48133	24138
4.48200	24066
4.48267	23996
4.48333	23928
4.48400	23862
4.48467	23798
4.48533	23735
4.48600	23674
4.48667	23615
4.48733	23558
4.48800	23502
4.48867	23448
4.48933	23395
4.49000	23344
4.49067	23294
4.49133	23246
4.49200	23199
4.49267	23154
4.49333	23110
4.49400	23067
4.49467	23026
4.49533	22985
4.49600	22946
4.49667	22909
4.49733	22872
4.49800	22836
4.49867	22802
4.49933	22768
4.50000	22735
4.50067	22703
4.50133	22672
4.50200	22642
4.50267	22613
4.50333	22584
4.50400	22557
4.50467	22529
4.50533	22503
4.50600	22477
4.50667	22451
4.50733	22427
4.50800	22402
4.50867	22378
4.50933	22355
4.51000	22332
4.51067	22310
4.51133	22288
4.51200	22267
4.51267	22246
4.51333	22225
4.51400	22205
4.51467	22185
4.51533	22165
4.51600	22146
4.51667	22127
4.51733	22108
4.51800	22089
4.51867	22070
4.51933	22052
4.52000	22033
4.52067	22015
4.52133	21997
4.52200	21980
4.52267	21962
4.52333	21944
4.52400	21926
4.52467	21909
4.52533	21891
4.52600	21873
4.52667	21856
4.52733	21838
4.52800	21820
4.52867	21802
4.52933	21784
4.53000	21767
4.53067	21749
4.53133	21731
4.53200	21714
4.53267	21696
4.53333	21679
4.53400	21661
4.53467	21644
4.53533	21627
4.53600	21611
4.53667	21594
4.53733	21577
4.53800	21561
4.53867	21545
4.53933	21529
4.54000	21514
4.54067	21499
4.54133	21484
4.54200	21469
4.54267	21455
4.54333	21442
4.54400	21428
4.54467	21415
4.54533	21402
4.54600	21390
4.54667	21378
4.54733	21366
4.54800	21355
4.54867	21344
4.54933	21334
4.55000	21324
4.55067	21315
4.55133	21306
4.55200	21298
4.55267	21290
4.55333	21283
4.55400	21276
4.55467	21270
4.55533	21264
4.55600	21259
4.55667	21255
4.55733	21251
4.55800	21248
4.55867	21246
4.55933	21244
4.56000	21243
4.56067	21243
4.56133	21243
4.56200	21244
4.56267	21246
4.56333	21248
4.56400	21251
4.56467	21255
4.56533	21259
4.56600	21264
4.56667	21270
4.56733	21276
4.56800	21283
4.56867	21291
4.56933	21299
4.57000	21308
4.57067	21318
4.57133	21328
4.57200	21339
4.57267	21350
4.57333	21362
4.57400	21374
4.57467	21387
4.57533	21400
4.57600	21413
4.57667	21427
4.57733	21440
4.57800	21455
4.57867	21469
4.57933	21484
4.58000	21499
4.58067	21514
4.58133	21529
4.58200	21544
4.58267	21559
4.58333	21574
4.58400	21589
4.58467	21604
4.58533	21619
4.58600	21634
4.58667	21649
4.58733	21663
4.58800	21677
4.58867	21691
4.58933	21705
4.59000	21718
4.59067	21731
4.59133	21743
4.59200	21754
4.59267	21766
4.59333	21776
4.59400	21786
4.59467	21795
4.59533	21804
4.59600	21811
4.59667	21818
4.59733	21825
4.59800	21830
4.59867	21835
4.59933	21839
4.60000	21842
4.60067	21845
4.60133	21846
4.60200	21847
4.60267	21847
4.60333	21846
4.60400	21844
4.60467	21842
4.60533	21838
4.60600	21833
4.60667	21827
4.60733	21821
4.60800	21813
4.60867	21804
4.60933	21794
4.61000	21783
4.61067	21771
4.61133	21758
4.61200	21744
4.61267	21729
4.61333	21714
4.61400	21697
4.61467	21679
4.61533	21660
4.61600	21641
4.61667	21620
4.61733	21599
4.61800	21576
4.61867	21553
4.61933	21528
4.62000	21503
4.62067	21477
4.62133	21451
4.62200	21423
4.62267	21395
4.62333	21366
4.62400	21336
4.62467	21305
4.62533	21274
4.62600	21241
4.62667	21208
4.62733	21175
4.62800	21140
4.62867	21104
4.62933	21068
4.63000	21030
4.63067	20992
4.63133	20954
4.63200	20914
4.63267	20874
4.63333	20832
4.63400	20791
4.63467	20748
4.63533	20705
4.63600	20661
4.63667	20617
4.63733	20572
4.63800	20527
4.63867	20481
4.63933	20435
4.64000	20388
4.64067	20341
4.64133	20294
4.64200	20246
4.64267	20198
4.64333	20149
4.64400	20100
4.64467	20050
4.64533	20001
4.64600	19951
4.64667	19900
4.64733	19850
4.64800	19799
4.64867	19748
4.64933	19697
4.65000	19646
4.65067	19595
4.65133	19543
4.65200	19492
4.65267	19440
4.65333	19389
4.65400	19337
4.65467	19285
4.65533	19234
4.65600	19182
4.65667	19131
4.65733	19079
4.65800	19028
4.65867	18976
4.65933	18925
4.66000	18873
4.66067	18822
4.66133	18771
4.66200	18720
4.66267	18669
4.66333	18618
4.66400	18568
4.66467	18517
4.66533	18467
4.66600	18417
4.66667	18367
4.66733	18318
4.66800	18268
4.66867	18219
4.66933	18170
4.67000	18121
4.67067	18073
4.67133	18024
4.67200	17976
4.67267	17928
4.67333	17880
4.67400	17832
4.67467	17785
4.67533	17737
4.67600	17690
4.67667	17643
4.67733	17596
4.67800	17549
4.67867	17502
4.67933	17456
4.68000	17410
4.68067	17364
4.68133	17318
4.68200	17273
4.68267	17227
4.68333	17182
4.68400	17138
4.68467	17093
4.68533	17049
4.68600	17005
4.68667	16962
4.68733	16918
4.68800	16875
4.68867	16833
4.68933	16790
4.69000	16748
4.69067	16706
4.69133	16664
4.69200	16623
4.69267	16582
4.69333	16542
4.69400	16501
4.69467	16461
4.69533	16421
4.69600	16382
4.69667	16342
4.69733	16303
4.69800	16264
4.69867	16226
4.69933	16188
4.70000	16150
4.70067	16112
4.70133	16074
4.70200	16037
4.70267	16000
4.70333	15964
4.70400	15928
4.70467	15892
4.70533	15857
4.70600	15822
4.70667	15787
4.70733	15753
4.70800	15719
4.70867	15686
4.70933	15653
4.71000	15621
4.71067	15589
4.71133	15557
4.71200	15526
4.71267	15495
4.71333	15464
4.71400	15434
4.71467	15404
4.71533	15375
4.71600	15345
4.71667	15317
4.71733	15288
4.71800	15260
4.71867	15232
4.71933	15204
4.72000	15177
4.72067	15150
4.72133	15123
4.72200	15096
4.72267	15070
4.72333	15044
4.72400	15018
4.72467	14992
4.72533	14967
4.72600	14943
4.72667	14918
4.72733	14894
4.72800	14870
4.72867	14847
4.72933	14824
4.73000	14801
4.73067	14778
4.73133	14756
4.73200	14734
4.73267	14713
4.73333	14692
4.73400	14671
4.73467	14650
4.73533	14630
4.73600	14610
4.73667	14590
4.73733	14571
4.73800	14552
4.73867	14532
4.73933	14513
4.74000	14495
4.74067	14476
4.74133	14457
4.74200	14439
4.74267	14421
4.74333	14402
4.74400	14384
4.74467	14366
4.74533	14349
4.74600	14331
4.74667	14313
4.74733	14296
4.74800	14279
4.74867	14261
4.74933	14244
4.75000	14227
4.75067	14210
4.75133	14193
4.75200	14177
4.75267	14160
4.75333	14144
4.75400	14127
4.75467	14111
4.75533	14095
4.75600	14079
4.75667	14063
4.75733	14047
4.75800	14032
4.75867	14016
4.75933	14001
4.76000	13985
4.76067	13970
4.76133	13955
4.76200	13940
4.76267	13925
4.76333	13911
4.76400	13896
4.76467	13882
4.76533	13868
4.76600	13853
4.76667	13839
4.76733	13825
4.76800	13812
4.76867	13798
4.76933	13784
4.77000	13771
4.77067	13757
4.77133	13744
4.77200	13730
4.77267	13717
4.77333	13704
4.77400	13691
4.77467	13678
4.77533	13664
4.77600	13652
4.77667	13639
4.77733	13626
4.77800	13613
4.77867	13600
4.77933	13588
4.78000	13575
4.78067	13563
4.78133	13550
4.78200	13538
4.78267	13525
4.78333	13513
4.78400	13501
4.78467	13489
4.78533	13477
4.78600	13465
4.78667	13453
4.78733	13441
4.78800	13429
4.78867	13417
4.78933	13405
4.79000	13394
4.79067	13382
4.79133	13370
4.79200	13359
4.79267	13347
4.79333	13336
4.79400	13324
4.79467	13313
4.79533	13302
4.79600	13290
4.79667	13279
4.79733	13268
4.79800	13256
4.79867	13245
4.79933	13234
4.80000	13223
4.80067	13213
4.80133	13202
4.80200	13191
4.80267	13181
4.80333	13170
4.80400	13159
4.80467	13149
4.80533	13138
4.80600	13128
4.80667	13117
4.80733	13107
4.80800	13096
4.80867	13086
4.80933	13076
4.81000	13066
4.81067	13055
4.81133	13045
4.81200	13035
4.81267	13025
4.81333	13015
4.81400	13005
4.81467	12995
4.81533	12985
4.81600	12975
4.81667	12965
4.81733	12955
4.81800	12945
4.81867	12935
4.81933	12925
4.82000	12915
4.82067	12905
4.82133	12896
4.82200	12886
4.82267	12877
4.82333	12867
4.82400	12858
4.82467	12848
4.82533	12839
4.82600	12830
4.82667	12821
4.82733	12811
4.82800	12802
4.82867	12793
4.82933	12784
4.83000	12775
4.83067	12766
4.83133	12757
4.83200	12748
4.83267	12739
4.83333	12730
4.83400	12721
4.83467	12712
4.83533	12703
4.83600	12694
4.83667	12685
4.83733	12677
4.83800	12668
4.83867	12659
4.83933	12651
4.84000	12642
4.84067	12634
4.84133	12625
4.84200	12617
4.84267	12609
4.84333	12600
4.84400	12592
4.84467	12584
4.84533	12576
4.84600	12568
4.84667	12560
4.84733	12552
4.84800	12544
4.84867	12536
4.84933	12528
4.85000	12520
4.85067	12512
4.85133	12504
4.85200	12496
4.85267	12488
4.85333	12480
4.85400	12472
4.85467	12464
4.85533	12456
4.85600	12448
4.85667	12440
4.85733	12432
4.85800	12423
4.85867	12415
4.85933	12407
4.86000	12399
4.86067	12390
4.86133	12382
4.86200	12374
4.86267	12366
4.86333	12358
4.86400	12349
4.86467	12341
4.86533	12333
4.86600	12325
4.86667	12317
4.86733	12308
4.86800	12300
4.86867	12292
4.86933	12284
4.87000	12276
4.87067	12268
4.87133	12260
4.87200	12252
4.87267	12243
4.87333	12236
4.87400	12228
4.87467	12220
4.87533	12212
4.87600	12204
4.87667	12196
4.87733	12189
4.87800	12181
4.87867	12173
4.87933	12166
4.88000	12158
4.88067	12150
4.88133	12143
4.88200	12135
4.88267	12127
4.88333	12120
4.88400	12112
4.88467	12104
4.88533	12096
4.88600	12088
4.88667	12080
4.88733	12072
4.88800	12064
4.88867	12056
4.88933	12048
4.89000	12041
4.89067	12033
4.89133	12025
4.89200	12017
4.89267	12009
4.89333	12001
4.89400	11993
4.89467	11985
4.89533	11977
4.89600	11969
4.89667	11961
4.89733	11953
4.89800	11945
4.89867	11937
4.89933	11929
4.90000	11921
4.90067	11914
4.90133	11906
4.90200	11898
4.90267	11891
4.90333	11883
4.90400	11876
4.90467	11868
4.90533	11861
4.90600	11853
4.90667	11846
4.90733	11839
4.90800	11832
4.90867	11825
4.90933	11817
4.91000	11810
4.91067	11804
4.91133	11797
4.91200	11790
4.91267	11783
4.91333	11777
4.91400	11771
4.91467	11764
4.91533	11758
4.91600	11752
4.91667	11746
4.91733	11740
4.91800	11734
4.91867	11728
4.91933	11722
4.92000	11716
4.92067	11710
4.92133	11704
4.92200	11698
4.92267	11692
4.92333	11687
4.92400	11681
4.92467	11675
4.92533	11670
4.92600	11664
4.92667	11658
4.92733	11653
4.92800	11647
4.92867	11642
4.92933	11636
4.93000	11631
4.93067	11625
4.93133	11620
4.93200	11615
4.93267	11610
4.93333	11605
4.93400	11600
4.93467	11595
4.93533	11590
4.93600	11586
4.93667	11581
4.93733	11576
4.93800	11572
4.93867	11567
4.93933	11563
4.94000	11559
4.94067	11554
4.94133	11550
4.94200	11546
4.94267	11542
4.94333	11538
4.94400	11534
4.94467	11530
4.94533	11526
4.94600	11522
4.94667	11518
4.94733	11514
4.94800	11510
4.94867	11506
4.94933	11502
4.95000	11499
4.95067	11495
4.95133	11491
4.95200	11488
4.95267	11484
4.95333	11481
4.95400	11478
4.95467	11474
4.95533	11471
4.95600	11468
4.95667	11465
4.95733	11462
4.95800	11459
4.95867	11456
4.95933	11453
4.96000	11450
4.96067	11447
4.96133	11444
4.96200	11442
4.96267	11439
4.96333	11436
4.96400	11434
4.96467	11431
4.96533	11429
4.96600	11427
4.96667	11424
4.96733	11422
4.96800	11420
4.96867	11418
4.96933	11416
4.97000	11414
4.97067	11412
4.97133	11411
4.97200	11409
4.97267	11407
4.97333	11405
4.97400	11403
4.97467	11401
4.97533	11399
4.97600	11397
4.97667	11395
4.97733	11393
4.97800	11391
4.97867	11389
4.97933	11388
4.98000	11386
4.98067	11384
4.98133	11382
4.98200	11380
4.98267	11378
4.98333	11376
4.98400	11374
4.98467	11372
4.98533	11370
4.98600	11368
4.98667	11366
4.98733	11364
4.98800	11362
4.98867	11360
4.98933	11358
4.99000	11356
4.99067	11354
4.99133	11352
4.99200	11350
4.99267	11348
4.99333	11346
4.99400	11343
4.99467	11341
4.99533	11339
4.99600	11337
4.99667	11334
4.99733	11332
4.99800	11329
4.99867	11327
4.99933	11324
5.00000	11322
5.00067	11319
5.00133	11317
5.00200	11314
5.00267	11311
5.00333	11309
5.00400	11306
5.00467	11303
5.00533	11301
5.00600	11298
5.00667	11295
5.00733	11292
5.00800	11289
5.00867	11286
5.00933	11283
5.01000	11280
5.01067	11277
5.01133	11274
5.01200	11271
5.01267	11267
5.01333	11264
5.01400	11260
5.01467	11257
5.01533	11253
5.01600	11249
5.01667	11245
5.01733	11241
5.01800	11237
5.01867	11233
5.01933	11228
5.02000	11224
5.02067	11219
5.02133	11214
5.02200	11210
5.02267	11205
5.02333	11200
5.02400	11195
5.02467	11191
5.02533	11186
5.02600	11181
5.02667	11176
5.02733	11171
5.02800	11166
5.02867	11160
5.02933	11155
5.03000	11150
5.03067	11145
5.03133	11139
5.03200	11134
5.03267	11128
5.03333	11123
5.03400	11117
5.03467	11112
5.03533	11106
5.03600	11100
5.03667	11095
5.03733	11089
5.03800	11083
5.03867	11077
5.03933	11072
5.04000	11066
5.04067	11060
5.04133	11054
5.04200	11048
5.04267	11041
5.04333	11035
5.04400	11029
5.04467	11023
5.04533	11016
5.04600	11010
5.04667	11004
5.04733	10997
5.04800	10990
5.04867	10984
5.04933	10977
5.05000	10971
5.05067	10964
5.05133	10957
5.05200	10950
5.05267	10943
5.05333	10936
5.05400	10929
5.05467	10922
5.05533	10915
5.05600	10908
5.05667	10901
5.05733	10894
5.05800	10887
5.05867	10880
5.05933	10872
5.06000	10865
5.06067	10858
5.06133	10850
5.06200	10843
5.06267	10836
5.06333	10828
5.06400	10821
5.06467	10813
5.06533	10806
5.06600	10799
5.06667	10791
5.06733	10784
5.06800	10776
5.06867	10769
5.06933	10762
5.07000	10755
5.07067	10747
5.07133	10740
5.07200	10733
5.07267	10725
5.07333	10718
5.07400	10711
5.07467	10704
5.07533	10697
5.07600	10690
5.07667	10683
5.07733	10675
5.07800	10669
5.07867	10662
5.07933	10655
5.08000	10648
5.08067	10641
5.08133	10634
5.08200	10628
5.08267	10621
5.08333	10614
5.08400	10608
5.08467	10601
5.08533	10595
5.08600	10588
5.08667	10582
5.08733	10576
5.08800	10569
5.08867	10563
5.08933	10557
5.09000	10551
5.09067	10545
5.09133	10539
5.09200	10533
5.09267	10527
5.09333	10521
5.09400	10515
5.09467	10510
5.09533	10504
5.09600	10498
5.09667	10493
5.09733	10487
5.09800	10482
5.09867	10477
5.09933	10471
5.10000	10466
5.10067	10461
5.10133	10456
5.10200	10451
5.10267	10447
5.10333	10442
5.10400	10437
5.10467	10433
5.10533	10429
5.10600	10425
5.10667	10421
5.10733	10417
5.10800	10413
5.10867	10409
5.10933	10406
5.11000	10402
5.11067	10399
5.11133	10395
5.11200	10392
5.11267	10389
5.11333	10386
5.11400	10384
5.11467	10381
5.11533	10378
5.11600	10376
5.11667	10373
5.11733	10371
5.11800	10369
5.11867	10368
5.11933	10366
5.12000	10364
5.12067	10363
5.12133	10362
5.12200	10361
5.12267	10360
5.12333	10359
5.12400	10359
5.12467	10358
5.12533	10358
5.12600	10358
5.12667	10357
5.12733	10358
5.12800	10358
5.12867	10358
5.12933	10359
5.13000	10359
5.13067	10360
5.13133	10361
5.13200	10362
5.13267	10363
5.13333	10364
5.13400	10365
5.13467	10367
5.13533	10368
5.13600	10370
5.13667	10372
5.13733	10374
5.13800	10376
5.13867	10379
5.13933	10381
5.14000	10384
5.14067	10387
5.14133	10390
5.14200	10393
5.14267	10396
5.14333	10400
5.14400	10404
5.14467	10408
5.14533	10412
5.14600	10416
5.14667	10421
5.14733	10425
5.14800	10430
5.14867	10435
5.14933	10441
5.15000	10446
5.15067	10452
5.15133	10458
5.15200	10464
5.15267	10470
5.15333	10476
5.15400	10482
5.15467	10489
5.15533	10496
5.15600	10503
5.15667	10510
5.15733	10517
5.15800	10524
5.15867	10532
5.15933	10539
5.16000	10547
5.16067	10555
5.16133	10563
5.16200	10572
5.16267	10580
5.16333	10589
5.16400	10597
5.16467	10606
5.16533	10615
5.16600	10625
5.16667	10634
5.16733	10644
5.16800	10653
5.16867	10663
5.16933	10673
5.17000	10684
5.17067	10694
5.17133	10705
5.17200	10716
5.17267	10727
5.17333	10739
5.17400	10750
5.17467	10762
5.17533	10774
5.17600	10786
5.17667	10799
5.17733	10811
5.17800	10824
5.17867	10837
5.17933	10850
5.18000	10863
5.18067	10876
5.18133	10890
5.18200	10904
5.18267	10917
5.18333	10931
5.18400	10945
5.18467	10959
5.18533	10974
5.18600	10988
5.18667	11002
5.18733	11017
5.18800	11032
5.18867	11046
5.18933	11061
5.19000	11076
5.19067	11091
5.19133	11106
5.19200	11121
5.19267	11137
5.19333	11152
5.19400	11167
5.19467	11182
5.19533	11197
5.19600	11212
5.19667	11227
5.19733	11242
5.19800	11257
5.19867	11272
5.19933	11287
5.20000	11302
5.20067	11317
5.20133	11332
5.20200	11347
5.20267	11361
5.20333	11376
5.20400	11391
5.20467	11405
5.20533	11419
5.20600	11434
5.20667	11448
5.20733	11461
5.20800	11475
5.20867	11488
5.20933	11502
5.21000	11515
5.21067	11527
5.21133	11540
5.21200	11552
5.21267	11564
5.21333	11576
5.21400	11587
5.21467	11599
5.21533	11610
5.21600	11620
5.21667	11631
5.21733	11641
5.21800	11651
5.21867	11660
5.21933	11669
5.22000	11678
5.22067	11686
5.22133	11694
5.22200	11702
5.22267	11709
5.22333	11716
5.22400	11722
5.22467	11728
5.22533	11733
5.22600	11739
5.22667	11743
5.22733	11747
5.22800	11751
5.22867	11754
5.22933	11757
5.23000	11759
5.23067	11761
5.23133	11763
5.23200	11764
5.23267	11764
5.23333	11765
5.23400	11764
5.23467	11764
5.23533	11763
5.23600	11762
5.23667	11760
5.23733	11758
5.23800	11756
5.23867	11753
5.23933	11750
5.24000	11747
5.24067	11743
5.24133	11739
5.24200	11735
5.24267	11730
5.24333	11725
5.24400	11720
5.24467	11714
5.24533	11708
5.24600	11702
5.24667	11695
5.24733	11688
5.24800	11681
5.24867	11673
5.24933	11665
5.25000	11657
5.25067	11648
5.25133	11639
5.25200	11630
5.25267	11621
5.25333	11611
5.25400	11601
5.25467	11591
5.25533	11580
5.25600	11569
5.25667	11558
5.25733	11547
5.25800	11536
5.25867	11524
5.25933	11512
5.26000	11500
5.26067	11487
5.26133	11475
5.26200	11462
5.26267	11449
5.26333	11435
5.26400	11422
5.26467	11408
5.26533	11394
5.26600	11380
5.26667	11366
5.26733	11352
5.26800	11337
5.26867	11323
5.26933	11308
5.27000	11293
5.27067	11279
5.27133	11264
5.27200	11249
5.27267	11234
5.27333	11219
5.27400	11204
5.27467	11189
5.27533	11174
5.27600	11159
5.27667	11144
5.27733	11129
5.27800	11114
5.27867	11099
5.27933	11084
5.28000	11069
5.28067	11054
5.28133	11039
5.28200	11025
5.28267	11010
5.28333	10996
5.28400	10981
5.28467	10967
5.28533	10952
5.28600	10938
5.28667	10923
5.28733	10909
5.28800	10895
5.28867	10881
5.28933	10867
5.29000	10854
5.29067	10840
5.29133	10826
5.29200	10813
5.29267	10799
5.29333	10786
5.29400	10773
5.29467	10760
5.29533	10747
5.29600	10734
5.29667	10721
5.29733	10708
5.29800	10696
5.29867	10684
5.29933	10671
5.30000	10659
5.30067	10647
5.30133	10636
5.30200	10624
5.30267	10613
5.30333	10601
5.30400	10590
5.30467	10580
5.30533	10569
5.30600	10559
5.30667	10548
5.30733	10538
5.30800	10528
5.30867	10518
5.30933	10508
5.31000	10498
5.31067	10489
5.31133	10479
5.31200	10470
5.31267	10461
5.31333	10452
5.31400	10444
5.31467	10435
5.31533	10427
5.31600	10419
5.31667	10411
5.31733	10403
5.31800	10396
5.31867	10388
5.31933	10381
5.32000	10374
5.32067	10368
5.32133	10361
5.32200	10355
5.32267	10349
5.32333	10344
5.32400	10338
5.32467	10333
5.32533	10328
5.32600	10323
5.32667	10318
5.32733	10314
5.32800	10310
5.32867	10305
5.32933	10302
5.33000	10298
5.33067	10294
5.33133	10291
5.33200	10288
5.33267	10285
5.33333	10282
5.33400	10279
5.33467	10277
5.33533	10275
5.33600	10273
5.33667	10271
5.33733	10269
5.33800	10267
5.33867	10266
5.33933	10265
5.34000	10264
5.34067	10263
5.34133	10262
5.34200	10262
5.34267	10261
5.34333	10261
5.34400	10261
5.34467	10261
5.34533	10262
5.34600	10262
5.34667	10263
5.34733	10264
5.34800	10265
5.34867	10266
5.34933	10267
5.35000	10269
5.35067	10271
5.35133	10272
5.35200	10274
5.35267	10276
5.35333	10279
5.35400	10281
5.35467	10283
5.35533	10286
5.35600	10289
5.35667	10292
5.35733	10295
5.35800	10298
5.35867	10301
5.35933	10304
5.36000	10308
5.36067	10311
5.36133	10315
5.36200	10319
5.36267	10323
5.36333	10327
5.36400	10331
5.36467	10336
5.36533	10340
5.36600	10345
5.36667	10350
5.36733	10355
5.36800	10360
5.36867	10365
5.36933	10370
5.37000	10375
5.37067	10381
5.37133	10386
5.37200	10391
5.37267	10397
5.37333	10402
5.37400	10408
5.37467	10414
5.37533	10419
5.37600	10425
5.37667	10431
5.37733	10437
5.37800	10442
5.37867	10448
5.37933	10454
5.38000	10460
5.38067	10466
5.38133	10472
5.38200	10478
5.38267	10483
5.38333	10489
5.38400	10495
5.38467	10501
5.38533	10507
5.38600	10513
5.38667	10518
5.38733	10524
5.38800	10530
5.38867	10535
5.38933	10541
5.39000	10546
5.39067	10552
5.39133	10557
5.39200	10562
5.39267	10568
5.39333	10573
5.39400	10578
5.39467	10583
5.39533	10588
5.39600	10593
5.39667	10598
5.39733	10602
5.39800	10607
5.39867	10612
5.39933	10616
5.40000	10621
5.40067	10625
5.40133	10629
5.40200	10633
5.40267	10637
5.40333	10641
5.40400	10645
5.40467	10649
5.40533	10652
5.40600	10656
5.40667	10659
5.40733	10662
5.40800	10665
5.40867	10668
5.40933	10671
5.41000	10673
5.41067	10676
5.41133	10678
5.41200	10680
5.41267	10682
5.41333	10684
5.41400	10686
5.41467	10687
5.41533	10688
5.41600	10690
5.41667	10691
5.41733	10691
5.41800	10692
5.41867	10693
5.41933	10693
5.42000	10693
5.42067	10693
5.42133	10693
5.42200	10693
5.42267	10693
5.42333	10692
5.42400	10691
5.42467	10691
5.42533	10689
5.42600	10688
5.42667	10687
5.42733	10685
5.42800	10683
5.42867	10681
5.42933	10679
5.43000	10677
5.43067	10674
5.43133	10671
5.43200	10668
5.43267	10665
5.43333	10662
5.43400	10658
5.43467	10654
5.43533	10650
5.43600	10646
5.43667	10641
5.43733	10636
5.43800	10631
5.43867	10626
5.43933	10621
5.44000	10616
5.44067	10610
5.44133	10604
5.44200	10598
5.44267	10592
5.44333	10586
5.44400	10579
5.44467	10572
5.44533	10565
5.44600	10558
5.44667	10551
5.44733	10543
5.44800	10536
5.44867	10528
5.44933	10520
5.45000	10512
5.45067	10504
5.45133	10496
5.45200	10488
5.45267	10479
5.45333	10470
5.45400	10461
5.45467	10452
5.45533	10443
5.45600	10434
5.45667	10425
5.45733	10415
5.45800	10406
5.45867	10396
5.45933	10386
5.46000	10376
5.46067	10366
5.46133	10356
5.46200	10345
5.46267	10335
5.46333	10324
5.46400	10314
5.46467	10303
5.46533	10293
5.46600	10282
5.46667	10271
5.46733	10260
5.46800	10249
5.46867	10238
5.46933	10227
5.47000	10216
5.47067	10205
5.47133	10194
5.47200	10183
5.47267	10172
5.47333	10161
5.47400	10150
5.47467	10138
5.47533	10127
5.47600	10116
5.47667	10105
5.47733	10094
5.47800	10082
5.47867	10071
5.47933	10060
5.48000	10049
5.48067	10037
5.48133	10026
5.48200	10015
5.48267	10004
5.48333	9993
5.48400	9982
5.48467	9971
5.48533	9960
5.48600	9948
5.48667	9938
5.48733	9927
5.48800	9916
5.48867	9905
5.48933	9894
5.49000	9883
5.49067	9872
5.49133	9861
5.49200	9850
5.49267	9840
5.49333	9829
5.49400	9818
5.49467	9808
5.49533	9797
5.49600	9787
5.49667	9776
5.49733	9766
5.49800	9756
5.49867	9746
5.49933	9736
5.50000	9726
5.50067	9716
5.50133	9706
5.50200	9697
5.50267	9687
5.50333	9678
5.50400	9668
5.50467	9659
5.50533	9649
5.50600	9640
5.50667	9631
5.50733	9622
5.50800	9613
5.50867	9604
5.50933	9595
5.51000	9587
5.51067	9578
5.51133	9570
5.51200	9561
5.51267	9553
5.51333	9545
5.51400	9537
5.51467	9529
5.51533	9521
5.51600	9513
5.51667	9506
5.51733	9498
5.51800	9491
5.51867	9483
5.51933	9476
5.52000	9468
5.52067	9461
5.52133	9454
5.52200	9447
5.52267	9440
5.52333	9433
5.52400	9426
5.52467	9419
5.52533	9413
5.52600	9406
5.52667	9400
5.52733	9394
5.52800	9387
5.52867	9381
5.52933	9375
5.53000	9369
5.53067	9363
5.53133	9358
5.53200	9352
5.53267	9346
5.53333	9341
5.53400	9336
5.53467	9330
5.53533	9325
5.53600	9320
5.53667	9315
5.53733	9310
5.53800	9305
5.53867	9300
5.53933	9295
5.54000	9291
5.54067	9286
5.54133	9282
5.54200	9277
5.54267	9273
5.54333	9269
5.54400	9265
5.54467	9261
5.54533	9257
5.54600	9254
5.54667	9250
5.54733	9247
5.54800	9243
5.54867	9240
5.54933	9236
5.55000	9233
5.55067	9230
5.55133	9227
5.55200	9224
5.55267	9221
5.55333	9218
5.55400	9215
5.55467	9213
5.55533	9210
5.55600	9207
5.55667	9205
5.55733	9202
5.55800	9200
5.55867	9198
5.55933	9196
5.56000	9194
5.56067	9192
5.56133	9190
5.56200	9188
5.56267	9187
5.56333	9185
5.56400	9184
5.56467	9182
5.56533	9181
5.56600	9179
5.56667	9178
5.56733	9177
5.56800	9176
5.56867	9175
5.56933	9174
5.57000	9173
5.57067	9173
5.57133	9172
5.57200	9171
5.57267	9171
5.57333	9170
5.57400	9170
5.57467	9170
5.57533	9169
5.57600	9169
5.57667	9169
5.57733	9168
5.57800	9168
5.57867	9168
5.57933	9168
5.58000	9168
5.58067	9168
5.58133	9168
5.58200	9168
5.58267	9168
5.58333	9168
5.58400	9168
5.58467	9169
5.58533	9169
5.58600	9169
5.58667	9169
5.58733	9169
5.58800	9170
5.58867	9170
5.58933	9170
5.59000	9171
5.59067	9171
5.59133	9171
5.59200	9172
5.59267	9172
5.59333	9172
5.59400	9173
5.59467	9173
5.59533	9174
5.59600	9174
5.59667	9174
5.59733	9174
5.59800	9175
5.59867	9175
5.59933	9175
5.60000	9175
5.60067	9176
5.60133	9176
5.60200	9176
5.60267	9176
5.60333	9177
5.60400	9177
5.60467	9177
5.60533	9177
5.60600	9177
5.60667	9177
5.60733	9177
5.60800	9177
5.60867	9178
5.60933	9178
5.61000	9178
5.61067	9177
5.61133	9177
5.61200	9177
5.61267	9177
5.61333	9177
5.61400	9177
5.61467	9177
5.61533	9176
5.61600	9176
5.61667	9176
5.61733	9176
5.61800	9175
5.61867	9175
5.61933	9174
5.62000	9174
5.62067	9173
5.62133	9172
5.62200	9172
5.62267	9171
5.62333	9170
5.62400	9169
5.62467	9168
5.62533	9167
5.62600	9166
5.62667	9165
5.62733	9164
5.62800	9162
5.62867	9161
5.62933	9160
5.63000	9158
5.63067	9157
5.63133	9155
5.63200	9154
5.63267	9152
5.63333	9150
5.63400	9148
5.63467	9146
5.63533	9144
5.63600	9142
5.63667	9140
5.63733	9137
5.63800	9135
5.63867	9133
5.63933	9130
5.64000	9128
5.64067	9125
5.64133	9123
5.64200	9120
5.64267	9117
5.64333	9115
5.64400	9112
5.64467	9109
5.64533	9106
5.64600	9103
5.64667	9100
5.64733	9097
5.64800	9094
5.64867	9091
5.64933	9088
5.65000	9084
5.65067	9081
5.65133	9078
5.65200	9075
5.65267	9072
5.65333	9069
5.65400	9066
5.65467	9062
5.65533	9059
5.65600	9056
5.65667	9053
5.65733	9050
5.65800	9047
5.65867	9043
5.65933	9040
5.66000	9037
5.66067	9034
5.66133	9030
5.66200	9027
5.66267	9024
5.66333	9020
5.66400	9017
5.66467	9013
5.66533	9010
5.66600	9007
5.66667	9003
5.66733	9000
5.66800	8996
5.66867	8992
5.66933	8989
5.67000	8985
5.67067	8981
5.67133	8978
5.67200	8974
5.67267	8970
5.67333	8967
5.67400	8963
5.67467	8959
5.67533	8955
5.67600	8952
5.67667	8948
5.67733	8944
5.67800	8940
5.67867	8937
5.67933	8933
5.68000	8929
5.68067	8925
5.68133	8922
5.68200	8918
5.68267	8914
5.68333	8910
5.68400	8907
5.68467	8903
5.68533	8899
5.68600	8896
5.68667	8892
5.68733	8888
5.68800	8885
5.68867	8881
5.68933	8877
5.69000	8873
5.69067	8869
5.69133	8865
5.69200	8861
5.69267	8857
5.69333	8853
5.69400	8849
5.69467	8845
5.69533	8841
5.69600	8837
5.69667	8833
5.69733	8828
5.69800	8824
5.69867	8820
5.69933	8816
5.70000	8812
5.70067	8808
5.70133	8804
5.70200	8800
5.70267	8796
5.70333	8792
5.70400	8789
5.70467	8785
5.70533	8781
5.70600	8777
5.70667	8773
5.70733	8769
5.70800	8765
5.70867	8761
5.70933	8758
5.71000	8754
5.71067	8751
5.71133	8747
5.71200	8744
5.71267	8740
5.71333	8737
5.71400	8734
5.71467	8730
5.71533	8727
5.71600	8724
5.71667	8721
5.71733	8718
5.71800	8715
5.71867	8712
5.71933	8709
5.72000	8707
5.72067	8704
5.72133	8701
5.72200	8699
5.72267	8696
5.72333	8694
5.72400	8691
5.72467	8689
5.72533	8687
5.72600	8685
5.72667	8682
5.72733	8680
5.72800	8678
5.72867	8677
5.72933	8675
5.73000	8673
5.73067	8671
5.73133	8670
5.73200	8668
5.73267	8667
5.73333	8666
5.73400	8665
5.73467	8664
5.73533	8663
5.73600	8662
5.73667	8661
5.73733	8660
5.73800	8660
5.73867	8659
5.73933	8659
5.74000	8659
5.74067	8658
5.74133	8658
5.74200	8658
5.74267	8658
5.74333	8659
5.74400	8659
5.74467	8659
5.74533	8660
5.74600	8661
5.74667	8662
5.74733	8662
5.74800	8663
5.74867	8665
5.74933	8666
5.75000	8667
5.75067	8668
5.75133	8670
5.75200	8672
5.75267	8673
5.75333	8675
5.75400	8677
5.75467	8679
5.75533	8681
5.75600	8683
5.75667	8686
5.75733	8688
5.75800	8691
5.75867	8693
5.75933	8696
5.76000	8699
5.76067	8702
5.76133	8705
5.76200	8709
5.76267	8712
5.76333	8716
5.76400	8719
5.76467	8723
5.76533	8727
5.76600	8732
5.76667	8736
5.76733	8741
5.76800	8745
5.76867	8750
5.76933	8755
5.77000	8760
5.77067	8766
5.77133	8772
5.77200	8777
5.77267	8783
5.77333	8789
5.77400	8796
5.77467	8802
5.77533	8809
5.77600	8816
5.77667	8823
5.77733	8831
5.77800	8839
5.77867	8846
5.77933	8854
5.78000	8863
5.78067	8871
5.78133	8880
5.78200	8889
5.78267	8898
5.78333	8908
5.78400	8918
5.78467	8928
5.78533	8938
5.78600	8948
5.78667	8959
5.78733	8970
5.78800	8982
5.78867	8993
5.78933	9005
5.79000	9018
5.79067	9030
5.79133	9043
5.79200	9056
5.79267	9070
5.79333	9083
5.79400	9097
5.79467	9112
5.79533	9126
5.79600	9141
5.79667	9157
5.79733	9172
5.79800	9188
5.79867	9204
5.79933	9221
5.80000	9237
5.80067	9254
5.80133	9271
5.80200	9289
5.80267	9306
5.80333	9324
5.80400	9343
5.80467	9361
5.80533	9380
5.80600	9399
5.80667	9418
5.80733	9438
5.80800	9457
5.80867	9477
5.80933	9497
5.81000	9517
5.81067	9538
5.81133	9558
5.81200	9579
5.81267	9600
5.81333	9622
5.81400	9643
5.81467	9665
5.81533	9686
5.81600	9708
5.81667	9731
5.81733	9753
5.81800	9776
5.81867	9798
5.81933	9821
5.82000	9844
5.82067	9867
5.82133	9890
5.82200	9914
5.82267	9937
5.82333	9961
5.82400	9984
5.82467	10008
5.82533	10032
5.82600	10055
5.82667	10079
5.82733	10103
5.82800	10127
5.82867	10151
5.82933	10175
5.83000	10198
5.83067	10222
5.83133	10246
5.83200	10270
5.83267	10293
5.83333	10317
5.83400	10341
5.83467	10365
5.83533	10388
5.83600	10412
5.83667	10435
5.83733	10459
5.83800	10483
5.83867	10506
5.83933	10530
5.84000	10553
5.84067	10576
5.84133	10599
5.84200	10623
5.84267	10646
5.84333	10669
5.84400	10691
5.84467	10714
5.84533	10737
5.84600	10759
5.84667	10781
5.84733	10804
5.84800	10826
5.84867	10848
5.84933	10870
5.85000	10892
5.85067	10913
5.85133	10935
5.85200	10957
5.85267	10978
5.85333	11000
5.85400	11021
5.85467	11042
5.85533	11063
5.85600	11084
5.85667	11104
5.85733	11125
5.85800	11145
5.85867	11165
5.85933	11185
5.86000	11204
5.86067	11224
5.86133	11243
5.86200	11262
5.86267	11281
5.86333	11299
5.86400	11318
5.86467	11336
5.86533	11353
5.86600	11371
5.86667	11388
5.86733	11405
5.86800	11422
5.86867	11438
5.86933	11454
5.87000	11470
5.87067	11485
5.87133	11500
5.87200	11515
5.87267	11529
5.87333	11543
5.87400	11557
5.87467	11570
5.87533	11583
5.87600	11595
5.87667	11607
5.87733	11619
5.87800	11630
5.87867	11641
5.87933	11652
5.88000	11662
5.88067	11672
5.88133	11682
5.88200	11691
5.88267	11700
5.88333	11708
5.88400	11716
5.88467	11724
5.88533	11731
5.88600	11738
5.88667	11744
5.88733	11750
5.88800	11756
5.88867	11761
5.88933	11766
5.89000	11770
5.89067	11774
5.89133	11778
5.89200	11781
5.89267	11784
5.89333	11786
5.89400	11788
5.89467	11790
5.89533	11791
5.89600	11792
5.89667	11793
5.89733	11793
5.89800	11793
5.89867	11793
5.89933	11792
5.90000	11791
5.90067	11789
5.90133	11787
5.90200	11785
5.90267	11783
5.90333	11780
5.90400	11777
5.90467	11774
5.90533	11770
5.90600	11766
5.90667	11762
5.90733	11757
5.90800	11753
5.90867	11748
5.90933	11743
5.91000	11737
5.91067	11732
5.91133	11726
5.91200	11720
5.91267	11714
5.91333	11707
5.91400	11700
5.91467	11694
5.91533	11687
5.91600	11679
5.91667	11672
5.91733	11664
5.91800	11656
5.91867	11648
5.91933	11640
5.92000	11631
5.92067	11623
5.92133	11614
5.92200	11605
5.92267	11595
5.92333	11586
5.92400	11576
5.92467	11566
5.92533	11556
5.92600	11546
5.92667	11536
5.92733	11525
5.92800	11514
5.92867	11503
5.92933	11492
5.93000	11481
5.93067	11470
5.93133	11458
5.93200	11447
5.93267	11435
5.93333	11424
5.93400	11412
5.93467	11400
5.93533	11388
5.93600	11376
5.93667	11363
5.93733	11351
5.93800	11339
5.93867	11326
5.93933	11314
5.94000	11301
5.94067	11288
5.94133	11276
5.94200	11263
5.94267	11250
5.94333	11237
5.94400	11225
5.94467	11212
5.94533	11199
5.94600	11186
5.94667	11174
5.94733	11161
5.94800	11148
5.94867	11136
5.94933	11123
5.95000	11110
5.95067	11097
5.95133	11085
5.95200	11072
5.95267	11059
5.95333	11047
5.95400	11034
5.95467	11021
5.95533	11009
5.95600	10996
5.95667	10984
5.95733	10971
5.95800	10959
5.95867	10946
5.95933	10934
5.96000	10921
5.96067	10909
5.96133	10897
5.96200	10885
5.96267	10873
5.96333	10861
5.96400	10849
5.96467	10837
5.96533	10825
5.96600	10813
5.96667	10801
5.96733	10790
5.96800	10778
5.96867	10767
5.96933	10755
5.97000	10744
5.97067	10732
5.97133	10721
5.97200	10710
5.97267	10699
5.97333	10688
5.97400	10677
5.97467	10666
5.97533	10655
5.97600	10644
5.97667	10633
5.97733	10623
5.97800	10612
5.97867	10602
5.97933	10591
5.98000	10581
5.98067	10570
5.98133	10560
5.98200	10550
5.98267	10540
5.98333	10530
5.98400	10520
5.98467	10511
5.98533	10501
5.98600	10492
5.98667	10482
5.98733	10473
5.98800	10463
5.98867	10454
5.98933	10445
5.99000	10436
5.99067	10427
5.99133	10418
5.99200	10409
5.99267	10400
5.99333	10391
5.99400	10382
5.99467	10373
5.99533	10365
5.99600	10356
5.99667	10348
5.99733	10340
5.99800	10331
5.99867	10323
5.99933	10315
6.00000	10306
6.00067	10298
6.00133	10290
6.00200	10282
6.00267	10274
6.00333	10266
6.00400	10258
6.00467	10250
6.00533	10242
6.00600	10234
6.00667	10226
6.00733	10218
6.00800	10210
6.00867	10202
6.00933	10194
6.01000	10186
6.01067	10178
6.01133	10171
6.01200	10163
6.01267	10155
6.01333	10147
6.01400	10139
6.01467	10132
6.01533	10124
6.01600	10116
6.01667	10109
6.01733	10101
6.01800	10094
6.01867	10086
6.01933	10079
6.02000	10071
6.02067	10064
6.02133	10056
6.02200	10049
6.02267	10042
6.02333	10035
6.02400	10027
6.02467	10020
6.02533	10013
6.02600	10006
6.02667	9999
6.02733	9991
6.02800	9984
6.02867	9977
6.02933	9970
6.03000	9963
6.03067	9956
6.03133	9949
6.03200	9942
6.03267	9935
6.03333	9928
6.03400	9921
6.03467	9914
6.03533	9907
6.03600	9900
6.03667	9894
6.03733	9887
6.03800	9880
6.03867	9874
6.03933	9867
6.04000	9861
6.04067	9854
6.04133	9847
6.04200	9841
6.04267	9835
6.04333	9828
6.04400	9822
6.04467	9816
6.04533	9809
6.04600	9803
6.04667	9797
6.04733	9791
6.04800	9785
6.04867	9779
6.04933	9773
6.05000	9768
6.05067	9762
6.05133	9756
6.05200	9751
6.05267	9745
6.05333	9740
6.05400	9734
6.05467	9729
6.05533	9724
6.05600	9718
6.05667	9713
6.05733	9708
6.05800	9703
6.05867	9698
6.05933	9693
6.06000	9688
6.06067	9683
6.06133	9678
6.06200	9673
6.06267	9668
6.06333	9664
6.06400	9659
6.06467	9654
6.06533	9649
6.06600	9645
6.06667	9640
6.06733	9635
6.06800	9631
6.06867	9626
6.06933	9622
6.07000	9617
6.07067	9613
6.07133	9608
6.07200	9604
6.07267	9599
6.07333	9595
6.07400	9591
6.07467	9587
6.07533	9583
6.07600	9578
6.07667	9574
6.07733	9570
6.07800	9566
6.07867	9562
6.07933	9558
6.08000	9554
6.08067	9550
6.08133	9546
6.08200	9542
6.08267	9538
6.08333	9534
6.08400	9530
6.08467	9526
6.08533	9522
6.08600	9518
6.08667	9514
6.08733	9510
6.08800	9506
6.08867	9502
6.08933	9498
6.09000	9494
6.09067	9490
6.09133	9486
6.09200	9482
6.09267	9478
6.09333	9474
6.09400	9470
6.09467	9466
6.09533	9462
6.09600	9458
6.09667	9454
6.09733	9450
6.09800	9447
6.09867	9443
6.09933	9439
6.10000	9435
6.10067	9431
6.10133	9428
6.10200	9424
6.10267	9420
6.10333	9416
6.10400	9413
6.10467	9409
6.10533	9405
6.10600	9401
6.10667	9398
6.10733	9394
6.10800	9391
6.10867	9387
6.10933	9384
6.11000	9380
6.11067	9377
6.11133	9373
6.11200	9370
6.11267	9366
6.11333	9363
6.11400	9359
6.11467	9356
6.11533	9352
6.11600	9349
6.11667	9345
6.11733	9342
6.11800	9338
6.11867	9335
6.11933	9331
6.12000	9327
6.12067	9324
6.12133	9320
6.12200	9316
6.12267	9312
6.12333	9308
6.12400	9305
6.12467	9301
6.12533	9297
6.12600	9293
6.12667	9289
6.12733	9285
6.12800	9281
6.12867	9277
6.12933	9273
6.13000	9269
6.13067	9265
6.13133	9261
6.13200	9258
6.13267	9254
6.13333	9250
6.13400	9246
6.13467	9242
6.13533	9239
6.13600	9235
6.13667	9231
6.13733	9227
6.13800	9224
6.13867	9220
6.13933	9216
6.14000	9213
6.14067	9209
6.14133	9205
6.14200	9201
6.14267	9198
6.14333	9194
6.14400	9190
6.14467	9187
6.14533	9183
6.14600	9179
6.14667	9176
6.14733	9172
6.14800	9169
6.14867	9165
6.14933	9161
6.15000	9158
6.15067	9154
6.15133	9151
6.15200	9147
6.15267	9144
6.15333	9140
6.15400	9137
6.15467	9133
6.15533	9130
6.15600	9126
6.15667	9123
6.15733	9119
6.15800	9116
6.15867	9112
6.15933	9109
6.16000	9106
6.16067	9102
6.16133	9099
6.16200	9096
6.16267	9092
6.16333	9089
6.16400	9085
6.16467	9082
6.16533	9079
6.16600	9075
6.16667	9072
6.16733	9068
6.16800	9065
6.16867	9061
6.16933	9058
6.17000	9055
6.17067	9051
6.17133	9048
6.17200	9045
6.17267	9041
6.17333	9038
6.17400	9035
6.17467	9031
6.17533	9028
6.17600	9025
6.17667	9021
6.17733	9018
6.17800	9015
6.17867	9011
6.17933	9008
6.18000	9005
6.18067	9002
6.18133	8998
6.18200	8995
6.18267	8992
6.18333	8988
6.18400	8985
6.18467	8982
6.18533	8979
6.18600	8976
6.18667	8972
6.18733	8969
6.18800	8966
6.18867	8963
6.18933	8960
6.19000	8957
6.19067	8954
6.19133	8951
6.19200	8948
6.19267	8945
6.19333	8942
6.19400	8939
6.19467	8937
6.19533	8934
6.19600	8931
6.19667	8928
6.19733	8926
6.19800	8923
6.19867	8920
6.19933	8917
6.20000	8915
6.20067	8912
6.20133	8910
6.20200	8907
6.20267	8905
6.20333	8902
6.20400	8900
6.20467	8897
6.20533	8895
6.20600	8893
6.20667	8890
6.20733	8888
6.20800	8886
6.20867	8884
6.20933	8882
6.21000	8880
6.21067	8878
6.21133	8876
6.21200	8874
6.21267	8872
6.21333	8870
6.21400	8868
6.21467	8866
6.21533	8864
6.21600	8862
6.21667	8861
6.21733	8859
6.21800	8857
6.21867	8855
6.21933	8853
6.22000	8852
6.22067	8850
6.22133	8848
6.22200	8846
6.22267	8845
6.22333	8843
6.22400	8841
6.22467	8840
6.22533	8838
6.22600	8836
6.22667	8835
6.22733	8833
6.22800	8832
6.22867	8830
6.22933	8829
6.23000	8827
6.23067	8826
6.23133	8824
6.23200	8823
6.23267	8821
6.23333	8820
6.23400	8818
6.23467	8817
6.23533	8815
6.23600	8814
6.23667	8812
6.23733	8811
6.23800	8809
6.23867	8808
6.23933	8807
6.24000	8806
6.24067	8804
6.24133	8803
6.24200	8802
6.24267	8801
6.24333	8800
6.24400	8799
6.24467	8798
6.24533	8796
6.24600	8795
6.24667	8794
6.24733	8793
6.24800	8792
6.24867	8792
6.24933	8791
6.25000	8790
6.25067	8789
6.25133	8788
6.25200	8787
6.25267	8786
6.25333	8786
6.25400	8785
6.25467	8784
6.25533	8783
6.25600	8782
6.25667	8782
6.25733	8781
6.25800	8780
6.25867	8779
6.25933	8778
6.26000	8777
6.26067	8777
6.26133	8776
6.26200	8775
6.26267	8774
6.26333	8773
6.26400	8772
6.26467	8771
6.26533	8770
6.26600	8769
6.26667	8768
6.26733	8767
6.26800	8766
6.26867	8765
6.26933	8765
6.27000	8764
6.27067	8763
6.27133	8762
6.27200	8761
6.27267	8760
6.27333	8759
6.27400	8758
6.27467	8757
6.27533	8756
6.27600	8755
6.27667	8754
6.27733	8753
6.27800	8753
6.27867	8752
6.27933	8751
6.28000	8750
6.28067	8749
6.28133	8748
6.28200	8747
6.28267	8746
6.28333	8745
6.28400	8744
6.28467	8743
6.28533	8742
6.28600	8741
6.28667	8740
6.28733	8739
6.28800	8738
6.28867	8737
6.28933	8736
6.29000	8735
6.29067	8733
6.29133	8732
6.29200	8731
6.29267	8730
6.29333	8729
6.29400	8728
6.29467	8726
6.29533	8725
6.29600	8724
6.29667	8723
6.29733	8721
6.29800	8720
6.29867	8719
6.29933	8717
6.30000	8716
6.30067	8714
6.30133	8713
6.30200	8711
6.30267	8710
6.30333	8708
6.30400	8707
6.30467	8705
6.30533	8703
6.30600	8701
6.30667	8700
6.30733	8698
6.30800	8696
6.30867	8694
6.30933	8692
6.31000	8690
6.31067	8688
6.31133	8687
6.31200	8685
6.31267	8683
6.31333	8681
6.31400	8679
6.31467	8677
6.31533	8675
6.31600	8673
6.31667	8671
6.31733	8669
6.31800	8668
6.31867	8666
6.31933	8664
6.32000	8662
6.32067	8660
6.32133	8658
6.32200	8656
6.32267	8654
6.32333	8652
6.32400	8650
6.32467	8647
6.32533	8645
6.32600	8643
6.32667	8641
6.32733	8638
6.32800	8636
6.32867	8634
6.32933	8632
6.33000	8629
6.33067	8627
6.33133	8624
6.33200	8622
6.33267	8620
6.33333	8617
6.33400	8614
6.33467	8612
6.33533	8609
6.33600	8607
6.33667	8604
6.33733	8601
6.33800	8599
6.33867	8596
6.33933	8593
6.34000	8590
6.34067	8587
6.34133	8584
6.34200	8581
6.34267	8579
6.34333	8576
6.34400	8573
6.34467	8570
6.34533	8567
6.34600	8564
6.34667	8561
6.34733	8558
6.34800	8555
6.34867	8552
6.34933	8549
6.35000	8546
6.35067	8543
6.35133	8540
6.35200	8537
6.35267	8534
6.35333	8531
6.35400	8528
6.35467	8525
6.35533	8522
6.35600	8519
6.35667	8516
6.35733	8513
6.35800	8510
6.35867	8507
6.35933	8504
6.36000	8501
6.36067	8497
6.36133	8494
6.36200	8491
6.36267	8488
6.36333	8485
6.36400	8482
6.36467	8479
6.36533	8476
6.36600	8472
6.36667	8469
6.36733	8466
6.36800	8463
6.36867	8460
6.36933	8457
6.37000	8454
6.37067	8451
6.37133	8448
6.37200	8445
6.37267	8442
6.37333	8439
6.37400	8436
6.37467	8433
6.37533	8430
6.37600	8427
6.37667	8424
6.37733	8421
6.37800	8419
6.37867	8416
6.37933	8413
6.38000	8410
6.38067	8407
6.38133	8405
6.38200	8402
6.38267	8399
6.38333	8397
6.38400	8394
6.38467	8391
6.38533	8389
6.38600	8386
6.38667	8383
6.38733	8381
6.38800	8378
6.38867	8375
6.38933	8373
6.39000	8370
6.39067	8368
6.39133	8365
6.39200	8363
6.39267	8360
6.39333	8358
6.39400	8355
6.39467	8353
6.39533	8350
6.39600	8348
6.39667	8345
6.39733	8343
6.39800	8340
6.39867	8338
6.39933	8336

