[Header]
Application Name	LabSolutions
Version	5.73
Data File Name	C:\LabSolutions\Data\Project1\stephen\2016-01-04\96.gcd
Output Date	1/5/2016
Output Time	4:51:47 PM

[Configuration]
Instrument Name	WEISSTA-PC-Instrument1
Instrument #	1
Line #	1
# of Detectors	1
Detector ID	DET#2
Detector Name	DFID1
# of Channels	1

[Chromatogram (Ch1)]
Interval(msec)	40
# of Points	9600
Start Time(min)	0.000
End Time(min)	6.400
R.Time (min)	Intensity
0.00033	-3
0.00100	-2
0.00167	-2
0.00233	-2
0.00300	-2
0.00367	-1
0.00433	-1
0.00500	-1
0.00567	-1
0.00633	-0
0.00700	0
0.00767	0
0.00833	1
0.00900	1
0.00967	2
0.01033	2
0.01100	2
0.01167	3
0.01233	3
0.01300	3
0.01367	4
0.01433	4
0.01500	4
0.01567	4
0.01633	4
0.01700	4
0.01767	4
0.01833	4
0.01900	4
0.01967	3
0.02033	3
0.02100	2
0.02167	2
0.02233	1
0.02300	0
0.02367	-1
0.02433	-2
0.02500	-3
0.02567	-3
0.02633	-5
0.02700	-6
0.02767	-7
0.02833	-8
0.02900	-9
0.02967	-10
0.03033	-11
0.03100	-12
0.03167	-13
0.03233	-14
0.03300	-15
0.03367	-16
0.03433	-16
0.03500	-17
0.03567	-18
0.03633	-19
0.03700	-20
0.03767	-20
0.03833	-21
0.03900	-21
0.03967	-22
0.04033	-23
0.04100	-23
0.04167	-24
0.04233	-24
0.04300	-25
0.04367	-25
0.04433	-26
0.04500	-26
0.04567	-27
0.04633	-27
0.04700	-27
0.04767	-28
0.04833	-28
0.04900	-29
0.04967	-29
0.05033	-29
0.05100	-29
0.05167	-30
0.05233	-30
0.05300	-30
0.05367	-30
0.05433	-30
0.05500	-31
0.05567	-31
0.05633	-31
0.05700	-31
0.05767	-31
0.05833	-31
0.05900	-31
0.05967	-31
0.06033	-31
0.06100	-31
0.06167	-31
0.06233	-31
0.06300	-31
0.06367	-31
0.06433	-31
0.06500	-31
0.06567	-31
0.06633	-31
0.06700	-31
0.06767	-31
0.06833	-30
0.06900	-30
0.06967	-30
0.07033	-30
0.07100	-30
0.07167	-30
0.07233	-30
0.07300	-30
0.07367	-30
0.07433	-30
0.07500	-30
0.07567	-30
0.07633	-30
0.07700	-30
0.07767	-30
0.07833	-30
0.07900	-30
0.07967	-30
0.08033	-30
0.08100	-30
0.08167	-30
0.08233	-30
0.08300	-29
0.08367	-29
0.08433	-27
0.08500	-22
0.08567	-12
0.08633	7
0.08700	35
0.08767	91
0.08833	177
0.08900	299
0.08967	443
0.09033	614
0.09100	834
0.09167	1116
0.09233	1436
0.09300	1796
0.09367	2210
0.09433	2672
0.09500	3185
0.09567	3745
0.09633	4381
0.09700	5064
0.09767	5780
0.09833	6524
0.09900	7360
0.09967	8263
0.10033	9193
0.10100	10158
0.10167	11126
0.10233	12135
0.10300	13152
0.10367	14152
0.10433	15126
0.10500	16080
0.10567	17078
0.10633	18125
0.10700	19190
0.10767	20241
0.10833	21281
0.10900	22317
0.10967	23321
0.11033	24270
0.11100	25160
0.11167	26002
0.11233	26790
0.11300	27546
0.11367	28296
0.11433	29018
0.11500	29731
0.11567	30415
0.11633	31074
0.11700	31677
0.11767	32238
0.11833	32754
0.11900	33247
0.11967	33726
0.12033	34175
0.12100	34581
0.12167	34919
0.12233	35192
0.12300	35414
0.12367	35596
0.12433	35751
0.12500	35884
0.12567	35991
0.12633	36061
0.12700	36103
0.12767	36150
0.12833	36191
0.12900	36199
0.12967	36235
0.13033	36416
0.13100	37294
0.13167	40667
0.13233	51048
0.13300	77814
0.13367	138425
0.13433	260553
0.13500	480675
0.13567	837809
0.13633	1369788
0.13700	2109479
0.13767	3084780
0.13833	4316438
0.13900	5818195
0.13967	7598153
0.14033	9660023
0.14100	12006148
0.14167	14639037
0.14233	17564656
0.14300	20789320
0.14367	24313931
0.14433	28128783
0.14500	32215410
0.14567	36550221
0.14633	41109338
0.14700	45868403
0.14767	50802499
0.14833	55886348
0.14900	61094959
0.14967	66405349
0.15033	71796636
0.15100	77249618
0.15167	82747096
0.15233	88273753
0.15300	93815756
0.15367	99360326
0.15433	104896023
0.15500	110412297
0.15567	115899269
0.15633	121347927
0.15700	126749814
0.15767	132097236
0.15833	137383318
0.15900	142601466
0.15967	147745678
0.16033	152809471
0.16100	157786692
0.16167	162671104
0.16233	167456926
0.16300	172139050
0.16367	176712128
0.16433	181171042
0.16500	185511248
0.16567	189728607
0.16633	193819162
0.16700	197778857
0.16767	201603968
0.16833	205290770
0.16900	208835107
0.16967	212233048
0.17033	215480290
0.17100	218572272
0.17167	221504001
0.17233	224269992
0.17300	226863911
0.17367	229279262
0.17433	231508869
0.17500	233546391
0.17567	235386073
0.17633	237023980
0.17700	238456851
0.17767	239682937
0.17833	240701561
0.17900	241513604
0.17967	242120800
0.18033	242526042
0.18100	242732887
0.18167	242745800
0.18233	242569792
0.18300	242210507
0.18367	241673552
0.18433	240965019
0.18500	240091284
0.18567	239058853
0.18633	237874431
0.18700	236544713
0.18767	235076523
0.18833	233476612
0.18900	231751810
0.18967	229908891
0.19033	227954543
0.19100	225895294
0.19167	223737735
0.19233	221488249
0.19300	219153191
0.19367	216738694
0.19433	214250814
0.19500	211695442
0.19567	209078357
0.19633	206405113
0.19700	203681129
0.19767	200911651
0.19833	198101772
0.19900	195256423
0.19967	192380420
0.20033	189478506
0.20100	186555432
0.20167	183616083
0.20233	180665382
0.20300	177707921
0.20367	174747586
0.20433	171787563
0.20500	168830435
0.20567	165878472
0.20633	162933718
0.20700	159998160
0.20767	157073669
0.20833	154162100
0.20900	151265240
0.20967	148384870
0.21033	145522694
0.21100	142680388
0.21167	139859552
0.21233	137061736
0.21300	134288418
0.21367	131541005
0.21433	128820825
0.21500	126129114
0.21567	123467022
0.21633	120835608
0.21700	118235844
0.21767	115668617
0.21833	113134731
0.21900	110634908
0.21967	108169795
0.22033	105739960
0.22100	103345914
0.22167	100988088
0.22233	98666860
0.22300	96382534
0.22367	94135363
0.22433	91925541
0.22500	89753214
0.22567	87618472
0.22633	85521363
0.22700	83461887
0.22767	81439999
0.22833	79455617
0.22900	77508623
0.22967	75598867
0.23033	73726161
0.23100	71890294
0.23167	70091022
0.23233	68328078
0.23300	66601167
0.23367	64909975
0.23433	63254164
0.23500	61633382
0.23567	60047256
0.23633	58495398
0.23700	56977404
0.23767	55492857
0.23833	54041327
0.23900	52622374
0.23967	51235548
0.24033	49880390
0.24100	48556434
0.24167	47263207
0.24233	46000231
0.24300	44767023
0.24367	43563094
0.24433	42387956
0.24500	41241116
0.24567	40122078
0.24633	39030346
0.24700	37965423
0.24767	36926814
0.24833	35914023
0.24900	34926556
0.24967	33963920
0.25033	33025626
0.25100	32111188
0.25167	31220126
0.25233	30351958
0.25300	29506208
0.25367	28682404
0.25433	27880080
0.25500	27098774
0.25567	26338030
0.25633	25597396
0.25700	24876428
0.25767	24174684
0.25833	23491732
0.25900	22827143
0.25967	22180496
0.26033	21551377
0.26100	20939375
0.26167	20344089
0.26233	19765120
0.26300	19202080
0.26367	18654585
0.26433	18122257
0.26500	17604727
0.26567	17101629
0.26633	16612606
0.26700	16137308
0.26767	15675391
0.26833	15226518
0.26900	14790357
0.26967	14366586
0.27033	13954886
0.27100	13554948
0.27167	13166467
0.27233	12789146
0.27300	12422694
0.27367	12066827
0.27433	11721265
0.27500	11385736
0.27567	11059974
0.27633	10743719
0.27700	10436718
0.27767	10138722
0.27833	9849490
0.27900	9568788
0.27967	9296387
0.28033	9032065
0.28100	8775607
0.28167	8526805
0.28233	8285456
0.28300	8051367
0.28367	7824347
0.28433	7604216
0.28500	7390798
0.28567	7183924
0.28633	6983433
0.28700	6789171
0.28767	6600987
0.28833	6418741
0.28900	6242299
0.28967	6071533
0.29033	5906323
0.29100	5746559
0.29167	5592141
0.29233	5442981
0.29300	5298999
0.29367	5160123
0.29433	5026295
0.29500	4897457
0.29567	4773563
0.29633	4654567
0.29700	4540422
0.29767	4431072
0.29833	4326461
0.29900	4226521
0.29967	4131179
0.30033	4040351
0.30100	3953943
0.30167	3871851
0.30233	3793965
0.30300	3720166
0.30367	3650334
0.30433	3584342
0.30500	3522060
0.30567	3463357
0.30633	3408101
0.30700	3356159
0.30767	3307398
0.30833	3261681
0.30900	3218865
0.30967	3178809
0.31033	3141378
0.31100	3106439
0.31167	3073858
0.31233	3043508
0.31300	3015264
0.31367	2989008
0.31433	2964630
0.31500	2942024
0.31567	2921090
0.31633	2901730
0.31700	2883855
0.31767	2867382
0.31833	2852232
0.31900	2838328
0.31967	2825593
0.32033	2813952
0.32100	2803330
0.32167	2793650
0.32233	2784833
0.32300	2776798
0.32367	2769463
0.32433	2762747
0.32500	2756570
0.32567	2750851
0.32633	2745511
0.32700	2740468
0.32767	2735633
0.32833	2730910
0.32900	2726193
0.32967	2721373
0.33033	2716333
0.33100	2710961
0.33167	2705140
0.33233	2698762
0.33300	2691722
0.33367	2683918
0.33433	2675254
0.33500	2665642
0.33567	2654997
0.33633	2643248
0.33700	2630333
0.33767	2616204
0.33833	2600826
0.33900	2584179
0.33967	2566259
0.34033	2547072
0.34100	2526643
0.34167	2505005
0.34233	2482204
0.34300	2458294
0.34367	2433335
0.34433	2407391
0.34500	2380532
0.34567	2352826
0.34633	2324347
0.34700	2295165
0.34767	2265350
0.34833	2234972
0.34900	2204099
0.34967	2172795
0.35033	2141123
0.35100	2109142
0.35167	2076912
0.35233	2044486
0.35300	2011917
0.35367	1979254
0.35433	1946542
0.35500	1913826
0.35567	1881146
0.35633	1848541
0.35700	1816045
0.35767	1783694
0.35833	1751517
0.35900	1719542
0.35967	1687797
0.36033	1656305
0.36100	1625089
0.36167	1594169
0.36233	1563564
0.36300	1533292
0.36367	1503367
0.36433	1473803
0.36500	1444614
0.36567	1415809
0.36633	1387399
0.36700	1359392
0.36767	1331797
0.36833	1304619
0.36900	1277864
0.36967	1251537
0.37033	1225640
0.37100	1200177
0.37167	1175150
0.37233	1150560
0.37300	1126410
0.37367	1102699
0.37433	1079426
0.37500	1056592
0.37567	1034193
0.37633	1012229
0.37700	990695
0.37767	969590
0.37833	948910
0.37900	928651
0.37967	908810
0.38033	889381
0.38100	870360
0.38167	851743
0.38233	833524
0.38300	815700
0.38367	798264
0.38433	781212
0.38500	764539
0.38567	748239
0.38633	732307
0.38700	716738
0.38767	701524
0.38833	686662
0.38900	672146
0.38967	657971
0.39033	644133
0.39100	630629
0.39167	617455
0.39233	604606
0.39300	592079
0.39367	579871
0.39433	567976
0.39500	556392
0.39567	545114
0.39633	534140
0.39700	523465
0.39767	513087
0.39833	503003
0.39900	493210
0.39967	483706
0.40033	474488
0.40100	465555
0.40167	456901
0.40233	448521
0.40300	440407
0.40367	432551
0.40433	424943
0.40500	417575
0.40567	410437
0.40633	403523
0.40700	396823
0.40767	390328
0.40833	384031
0.40900	377925
0.40967	372002
0.41033	366256
0.41100	360680
0.41167	355269
0.41233	350015
0.41300	344915
0.41367	339962
0.41433	335150
0.41500	330476
0.41567	325935
0.41633	321520
0.41700	317229
0.41767	313057
0.41833	309000
0.41900	305054
0.41967	301215
0.42033	297480
0.42100	293845
0.42167	290306
0.42233	286861
0.42300	283505
0.42367	280237
0.42433	277052
0.42500	273947
0.42567	270921
0.42633	267970
0.42700	265091
0.42767	262282
0.42833	259539
0.42900	256862
0.42967	254247
0.43033	251693
0.43100	249197
0.43167	246757
0.43233	244372
0.43300	242039
0.43367	239756
0.43433	237522
0.43500	235334
0.43567	233191
0.43633	231092
0.43700	229033
0.43767	227015
0.43833	225034
0.43900	223091
0.43967	221183
0.44033	219309
0.44100	217468
0.44167	215659
0.44233	213880
0.44300	212131
0.44367	210410
0.44433	208716
0.44500	207049
0.44567	205406
0.44633	203788
0.44700	202194
0.44767	200623
0.44833	199073
0.44900	197545
0.44967	196038
0.45033	194550
0.45100	193082
0.45167	191633
0.45233	190201
0.45300	188788
0.45367	187391
0.45433	186011
0.45500	184647
0.45567	183299
0.45633	181966
0.45700	180648
0.45767	179345
0.45833	178056
0.45900	176782
0.45967	175522
0.46033	174276
0.46100	173043
0.46167	171825
0.46233	170620
0.46300	169429
0.46367	168251
0.46433	167087
0.46500	165936
0.46567	164798
0.46633	163673
0.46700	162561
0.46767	161461
0.46833	160374
0.46900	159299
0.46967	158236
0.47033	157185
0.47100	156145
0.47167	155117
0.47233	154099
0.47300	153092
0.47367	152095
0.47433	151109
0.47500	150132
0.47567	149165
0.47633	148207
0.47700	147258
0.47767	146318
0.47833	145387
0.47900	144464
0.47967	143549
0.48033	142642
0.48100	141744
0.48167	140853
0.48233	139969
0.48300	139092
0.48367	138223
0.48433	137361
0.48500	136505
0.48567	135656
0.48633	134814
0.48700	133978
0.48767	133149
0.48833	132326
0.48900	131509
0.48967	130698
0.49033	129892
0.49100	129093
0.49167	128299
0.49233	127511
0.49300	126728
0.49367	125951
0.49433	125180
0.49500	124413
0.49567	123652
0.49633	122896
0.49700	122146
0.49767	121400
0.49833	120660
0.49900	119924
0.49967	119194
0.50033	118469
0.50100	117748
0.50167	117033
0.50233	116322
0.50300	115617
0.50367	114916
0.50433	114220
0.50500	113528
0.50567	112842
0.50633	112160
0.50700	111483
0.50767	110811
0.50833	110143
0.50900	109480
0.50967	108822
0.51033	108168
0.51100	107519
0.51167	106875
0.51233	106236
0.51300	105601
0.51367	104970
0.51433	104345
0.51500	103724
0.51567	103108
0.51633	102496
0.51700	101889
0.51767	101286
0.51833	100688
0.51900	100094
0.51967	99505
0.52033	98921
0.52100	98341
0.52167	97765
0.52233	97193
0.52300	96626
0.52367	96063
0.52433	95504
0.52500	94949
0.52567	94398
0.52633	93851
0.52700	93309
0.52767	92770
0.52833	92235
0.52900	91704
0.52967	91177
0.53033	90654
0.53100	90135
0.53167	89620
0.53233	89108
0.53300	88601
0.53367	88098
0.53433	87598
0.53500	87103
0.53567	86611
0.53633	86123
0.53700	85640
0.53767	85159
0.53833	84683
0.53900	84210
0.53967	83742
0.54033	83276
0.54100	82815
0.54167	82357
0.54233	81903
0.54300	81452
0.54367	81005
0.54433	80562
0.54500	80121
0.54567	79685
0.54633	79251
0.54700	78821
0.54767	78395
0.54833	77972
0.54900	77552
0.54967	77135
0.55033	76722
0.55100	76312
0.55167	75905
0.55233	75501
0.55300	75101
0.55367	74703
0.55433	74309
0.55500	73918
0.55567	73529
0.55633	73144
0.55700	72762
0.55767	72383
0.55833	72007
0.55900	71635
0.55967	71265
0.56033	70898
0.56100	70534
0.56167	70173
0.56233	69815
0.56300	69460
0.56367	69108
0.56433	68760
0.56500	68414
0.56567	68071
0.56633	67732
0.56700	67395
0.56767	67062
0.56833	66732
0.56900	66405
0.56967	66082
0.57033	65761
0.57100	65444
0.57167	65130
0.57233	64820
0.57300	64512
0.57367	64208
0.57433	63907
0.57500	63609
0.57567	63315
0.57633	63023
0.57700	62735
0.57767	62449
0.57833	62166
0.57900	61885
0.57967	61608
0.58033	61333
0.58100	61060
0.58167	60790
0.58233	60522
0.58300	60256
0.58367	59992
0.58433	59731
0.58500	59471
0.58567	59213
0.58633	58958
0.58700	58704
0.58767	58451
0.58833	58201
0.58900	57952
0.58967	57705
0.59033	57459
0.59100	57215
0.59167	56972
0.59233	56731
0.59300	56492
0.59367	56254
0.59433	56017
0.59500	55782
0.59567	55548
0.59633	55316
0.59700	55085
0.59767	54855
0.59833	54627
0.59900	54401
0.59967	54176
0.60033	53952
0.60100	53730
0.60167	53510
0.60233	53291
0.60300	53073
0.60367	52857
0.60433	52643
0.60500	52430
0.60567	52219
0.60633	52009
0.60700	51802
0.60767	51596
0.60833	51391
0.60900	51189
0.60967	50988
0.61033	50789
0.61100	50592
0.61167	50396
0.61233	50203
0.61300	50011
0.61367	49821
0.61433	49633
0.61500	49447
0.61567	49264
0.61633	49083
0.61700	48904
0.61767	48729
0.61833	48557
0.61900	48389
0.61967	48226
0.62033	48068
0.62100	47916
0.62167	47772
0.62233	47637
0.62300	47512
0.62367	47398
0.62433	47297
0.62500	47210
0.62567	47139
0.62633	47084
0.62700	47048
0.62767	47030
0.62833	47032
0.62900	47054
0.62967	47095
0.63033	47156
0.63100	47235
0.63167	47332
0.63233	47444
0.63300	47571
0.63367	47709
0.63433	47858
0.63500	48014
0.63567	48176
0.63633	48339
0.63700	48503
0.63767	48664
0.63833	48819
0.63900	48967
0.63967	49105
0.64033	49232
0.64100	49347
0.64167	49447
0.64233	49532
0.64300	49602
0.64367	49656
0.64433	49693
0.64500	49715
0.64567	49720
0.64633	49709
0.64700	49683
0.64767	49642
0.64833	49586
0.64900	49517
0.64967	49435
0.65033	49341
0.65100	49234
0.65167	49117
0.65233	48990
0.65300	48852
0.65367	48707
0.65433	48552
0.65500	48391
0.65567	48222
0.65633	48047
0.65700	47866
0.65767	47680
0.65833	47489
0.65900	47294
0.65967	47095
0.66033	46892
0.66100	46686
0.66167	46478
0.66233	46268
0.66300	46056
0.66367	45842
0.66433	45627
0.66500	45411
0.66567	45194
0.66633	44976
0.66700	44758
0.66767	44540
0.66833	44321
0.66900	44103
0.66967	43884
0.67033	43665
0.67100	43447
0.67167	43230
0.67233	43013
0.67300	42796
0.67367	42581
0.67433	42366
0.67500	42153
0.67567	41940
0.67633	41729
0.67700	41519
0.67767	41310
0.67833	41103
0.67900	40897
0.67967	40693
0.68033	40490
0.68100	40290
0.68167	40091
0.68233	39895
0.68300	39700
0.68367	39509
0.68433	39319
0.68500	39133
0.68567	38949
0.68633	38768
0.68700	38590
0.68767	38416
0.68833	38246
0.68900	38079
0.68967	37917
0.69033	37759
0.69100	37607
0.69167	37460
0.69233	37319
0.69300	37184
0.69367	37058
0.69433	36940
0.69500	36832
0.69567	36735
0.69633	36650
0.69700	36579
0.69767	36524
0.69833	36487
0.69900	36470
0.69967	36473
0.70033	36501
0.70100	36554
0.70167	36634
0.70233	36743
0.70300	36881
0.70367	37048
0.70433	37245
0.70500	37472
0.70567	37727
0.70633	38008
0.70700	38314
0.70767	38641
0.70833	38987
0.70900	39348
0.70967	39721
0.71033	40101
0.71100	40483
0.71167	40865
0.71233	41240
0.71300	41606
0.71367	41959
0.71433	42296
0.71500	42614
0.71567	42911
0.71633	43184
0.71700	43433
0.71767	43656
0.71833	43852
0.71900	44021
0.71967	44163
0.72033	44279
0.72100	44368
0.72167	44432
0.72233	44472
0.72300	44487
0.72367	44481
0.72433	44453
0.72500	44404
0.72567	44336
0.72633	44251
0.72700	44148
0.72767	44030
0.72833	43897
0.72900	43751
0.72967	43592
0.73033	43422
0.73100	43241
0.73167	43050
0.73233	42850
0.73300	42642
0.73367	42427
0.73433	42205
0.73500	41977
0.73567	41743
0.73633	41505
0.73700	41263
0.73767	41017
0.73833	40768
0.73900	40516
0.73967	40262
0.74033	40006
0.74100	39749
0.74167	39491
0.74233	39232
0.74300	38973
0.74367	38714
0.74433	38455
0.74500	38197
0.74567	37939
0.74633	37683
0.74700	37427
0.74767	37173
0.74833	36921
0.74900	36671
0.74967	36422
0.75033	36176
0.75100	35932
0.75167	35690
0.75233	35451
0.75300	35214
0.75367	34980
0.75433	34748
0.75500	34519
0.75567	34293
0.75633	34069
0.75700	33849
0.75767	33631
0.75833	33417
0.75900	33205
0.75967	32996
0.76033	32790
0.76100	32587
0.76167	32388
0.76233	32191
0.76300	31997
0.76367	31806
0.76433	31618
0.76500	31433
0.76567	31251
0.76633	31071
0.76700	30895
0.76767	30722
0.76833	30551
0.76900	30384
0.76967	30219
0.77033	30057
0.77100	29898
0.77167	29742
0.77233	29589
0.77300	29438
0.77367	29291
0.77433	29146
0.77500	29003
0.77567	28863
0.77633	28726
0.77700	28592
0.77767	28459
0.77833	28330
0.77900	28202
0.77967	28077
0.78033	27955
0.78100	27834
0.78167	27716
0.78233	27600
0.78300	27487
0.78367	27375
0.78433	27265
0.78500	27157
0.78567	27052
0.78633	26948
0.78700	26846
0.78767	26745
0.78833	26647
0.78900	26550
0.78967	26454
0.79033	26361
0.79100	26269
0.79167	26178
0.79233	26089
0.79300	26001
0.79367	25915
0.79433	25830
0.79500	25747
0.79567	25664
0.79633	25583
0.79700	25503
0.79767	25425
0.79833	25347
0.79900	25271
0.79967	25196
0.80033	25122
0.80100	25049
0.80167	24977
0.80233	24906
0.80300	24836
0.80367	24767
0.80433	24699
0.80500	24632
0.80567	24566
0.80633	24501
0.80700	24436
0.80767	24373
0.80833	24310
0.80900	24248
0.80967	24187
0.81033	24126
0.81100	24067
0.81167	24008
0.81233	23949
0.81300	23891
0.81367	23834
0.81433	23778
0.81500	23722
0.81567	23666
0.81633	23612
0.81700	23557
0.81767	23503
0.81833	23450
0.81900	23397
0.81967	23345
0.82033	23293
0.82100	23242
0.82167	23191
0.82233	23141
0.82300	23091
0.82367	23041
0.82433	22992
0.82500	22944
0.82567	22896
0.82633	22848
0.82700	22801
0.82767	22754
0.82833	22707
0.82900	22661
0.82967	22616
0.83033	22570
0.83100	22525
0.83167	22481
0.83233	22437
0.83300	22393
0.83367	22349
0.83433	22306
0.83500	22264
0.83567	22221
0.83633	22179
0.83700	22138
0.83767	22096
0.83833	22055
0.83900	22015
0.83967	21975
0.84033	21935
0.84100	21895
0.84167	21856
0.84233	21817
0.84300	21778
0.84367	21740
0.84433	21702
0.84500	21664
0.84567	21626
0.84633	21589
0.84700	21552
0.84767	21515
0.84833	21479
0.84900	21443
0.84967	21407
0.85033	21371
0.85100	21335
0.85167	21300
0.85233	21265
0.85300	21230
0.85367	21195
0.85433	21161
0.85500	21126
0.85567	21092
0.85633	21058
0.85700	21025
0.85767	20991
0.85833	20958
0.85900	20925
0.85967	20892
0.86033	20859
0.86100	20826
0.86167	20794
0.86233	20762
0.86300	20730
0.86367	20698
0.86433	20666
0.86500	20634
0.86567	20603
0.86633	20572
0.86700	20541
0.86767	20510
0.86833	20479
0.86900	20448
0.86967	20418
0.87033	20388
0.87100	20358
0.87167	20328
0.87233	20298
0.87300	20268
0.87367	20239
0.87433	20209
0.87500	20180
0.87567	20151
0.87633	20122
0.87700	20093
0.87767	20064
0.87833	20035
0.87900	20007
0.87967	19979
0.88033	19950
0.88100	19922
0.88167	19894
0.88233	19866
0.88300	19839
0.88367	19811
0.88433	19784
0.88500	19756
0.88567	19729
0.88633	19702
0.88700	19675
0.88767	19648
0.88833	19622
0.88900	19595
0.88967	19569
0.89033	19543
0.89100	19517
0.89167	19491
0.89233	19465
0.89300	19440
0.89367	19415
0.89433	19390
0.89500	19365
0.89567	19341
0.89633	19317
0.89700	19293
0.89767	19270
0.89833	19246
0.89900	19224
0.89967	19201
0.90033	19179
0.90100	19157
0.90167	19136
0.90233	19115
0.90300	19095
0.90367	19075
0.90433	19056
0.90500	19037
0.90567	19018
0.90633	19001
0.90700	18984
0.90767	18967
0.90833	18951
0.90900	18936
0.90967	18921
0.91033	18906
0.91100	18892
0.91167	18879
0.91233	18866
0.91300	18854
0.91367	18842
0.91433	18830
0.91500	18819
0.91567	18808
0.91633	18797
0.91700	18786
0.91767	18775
0.91833	18765
0.91900	18755
0.91967	18744
0.92033	18734
0.92100	18724
0.92167	18714
0.92233	18703
0.92300	18693
0.92367	18683
0.92433	18672
0.92500	18661
0.92567	18651
0.92633	18640
0.92700	18629
0.92767	18618
0.92833	18606
0.92900	18595
0.92967	18583
0.93033	18572
0.93100	18560
0.93167	18548
0.93233	18536
0.93300	18523
0.93367	18511
0.93433	18498
0.93500	18485
0.93567	18471
0.93633	18458
0.93700	18445
0.93767	18431
0.93833	18417
0.93900	18402
0.93967	18388
0.94033	18373
0.94100	18358
0.94167	18343
0.94233	18327
0.94300	18311
0.94367	18295
0.94433	18279
0.94500	18262
0.94567	18245
0.94633	18228
0.94700	18211
0.94767	18193
0.94833	18176
0.94900	18158
0.94967	18140
0.95033	18121
0.95100	18103
0.95167	18084
0.95233	18065
0.95300	18046
0.95367	18027
0.95433	18007
0.95500	17988
0.95567	17968
0.95633	17949
0.95700	17929
0.95767	17910
0.95833	17890
0.95900	17870
0.95967	17851
0.96033	17831
0.96100	17811
0.96167	17792
0.96233	17772
0.96300	17753
0.96367	17734
0.96433	17715
0.96500	17695
0.96567	17676
0.96633	17657
0.96700	17639
0.96767	17620
0.96833	17601
0.96900	17582
0.96967	17564
0.97033	17545
0.97100	17526
0.97167	17508
0.97233	17489
0.97300	17470
0.97367	17451
0.97433	17432
0.97500	17413
0.97567	17393
0.97633	17374
0.97700	17354
0.97767	17334
0.97833	17314
0.97900	17294
0.97967	17274
0.98033	17253
0.98100	17232
0.98167	17211
0.98233	17190
0.98300	17169
0.98367	17147
0.98433	17126
0.98500	17104
0.98567	17082
0.98633	17060
0.98700	17038
0.98767	17015
0.98833	16993
0.98900	16970
0.98967	16948
0.99033	16925
0.99100	16902
0.99167	16879
0.99233	16856
0.99300	16833
0.99367	16810
0.99433	16787
0.99500	16764
0.99567	16741
0.99633	16718
0.99700	16695
0.99767	16672
0.99833	16649
0.99900	16626
0.99967	16603
1.00033	16580
1.00100	16557
1.00167	16535
1.00233	16512
1.00300	16489
1.00367	16467
1.00433	16444
1.00500	16422
1.00567	16399
1.00633	16377
1.00700	16355
1.00767	16333
1.00833	16311
1.00900	16289
1.00967	16268
1.01033	16246
1.01100	16225
1.01167	16204
1.01233	16183
1.01300	16162
1.01367	16142
1.01433	16121
1.01500	16101
1.01567	16081
1.01633	16062
1.01700	16042
1.01767	16023
1.01833	16004
1.01900	15986
1.01967	15968
1.02033	15950
1.02100	15932
1.02167	15915
1.02233	15899
1.02300	15882
1.02367	15866
1.02433	15851
1.02500	15836
1.02567	15821
1.02633	15806
1.02700	15792
1.02767	15778
1.02833	15765
1.02900	15751
1.02967	15738
1.03033	15725
1.03100	15713
1.03167	15700
1.03233	15687
1.03300	15675
1.03367	15663
1.03433	15650
1.03500	15638
1.03567	15626
1.03633	15613
1.03700	15601
1.03767	15588
1.03833	15576
1.03900	15563
1.03967	15550
1.04033	15537
1.04100	15524
1.04167	15511
1.04233	15497
1.04300	15484
1.04367	15470
1.04433	15456
1.04500	15442
1.04567	15427
1.04633	15413
1.04700	15399
1.04767	15384
1.04833	15369
1.04900	15354
1.04967	15339
1.05033	15324
1.05100	15309
1.05167	15293
1.05233	15278
1.05300	15262
1.05367	15247
1.05433	15231
1.05500	15215
1.05567	15199
1.05633	15183
1.05700	15168
1.05767	15152
1.05833	15136
1.05900	15120
1.05967	15104
1.06033	15088
1.06100	15072
1.06167	15056
1.06233	15041
1.06300	15025
1.06367	15009
1.06433	14994
1.06500	14978
1.06567	14962
1.06633	14947
1.06700	14931
1.06767	14915
1.06833	14900
1.06900	14885
1.06967	14869
1.07033	14854
1.07100	14839
1.07167	14824
1.07233	14809
1.07300	14794
1.07367	14779
1.07433	14764
1.07500	14749
1.07567	14735
1.07633	14720
1.07700	14706
1.07767	14692
1.07833	14678
1.07900	14664
1.07967	14650
1.08033	14636
1.08100	14623
1.08167	14609
1.08233	14596
1.08300	14583
1.08367	14570
1.08433	14557
1.08500	14545
1.08567	14532
1.08633	14520
1.08700	14508
1.08767	14496
1.08833	14484
1.08900	14472
1.08967	14460
1.09033	14448
1.09100	14436
1.09167	14425
1.09233	14413
1.09300	14402
1.09367	14390
1.09433	14379
1.09500	14367
1.09567	14356
1.09633	14345
1.09700	14334
1.09767	14322
1.09833	14311
1.09900	14300
1.09967	14289
1.10033	14278
1.10100	14267
1.10167	14256
1.10233	14245
1.10300	14234
1.10367	14223
1.10433	14212
1.10500	14201
1.10567	14191
1.10633	14180
1.10700	14169
1.10767	14159
1.10833	14148
1.10900	14138
1.10967	14128
1.11033	14118
1.11100	14108
1.11167	14098
1.11233	14088
1.11300	14078
1.11367	14068
1.11433	14058
1.11500	14049
1.11567	14039
1.11633	14030
1.11700	14020
1.11767	14011
1.11833	14001
1.11900	13992
1.11967	13983
1.12033	13973
1.12100	13964
1.12167	13955
1.12233	13945
1.12300	13936
1.12367	13927
1.12433	13918
1.12500	13908
1.12567	13899
1.12633	13890
1.12700	13881
1.12767	13872
1.12833	13862
1.12900	13853
1.12967	13844
1.13033	13835
1.13100	13826
1.13167	13816
1.13233	13807
1.13300	13798
1.13367	13788
1.13433	13779
1.13500	13769
1.13567	13760
1.13633	13750
1.13700	13741
1.13767	13731
1.13833	13721
1.13900	13712
1.13967	13702
1.14033	13693
1.14100	13683
1.14167	13673
1.14233	13663
1.14300	13654
1.14367	13644
1.14433	13634
1.14500	13625
1.14567	13615
1.14633	13605
1.14700	13596
1.14767	13586
1.14833	13576
1.14900	13567
1.14967	13557
1.15033	13547
1.15100	13538
1.15167	13528
1.15233	13518
1.15300	13509
1.15367	13499
1.15433	13490
1.15500	13480
1.15567	13471
1.15633	13462
1.15700	13452
1.15767	13443
1.15833	13433
1.15900	13424
1.15967	13415
1.16033	13406
1.16100	13396
1.16167	13387
1.16233	13378
1.16300	13369
1.16367	13360
1.16433	13351
1.16500	13342
1.16567	13333
1.16633	13324
1.16700	13316
1.16767	13307
1.16833	13298
1.16900	13290
1.16967	13281
1.17033	13273
1.17100	13264
1.17167	13256
1.17233	13248
1.17300	13239
1.17367	13231
1.17433	13223
1.17500	13215
1.17567	13207
1.17633	13199
1.17700	13192
1.17767	13184
1.17833	13176
1.17900	13169
1.17967	13161
1.18033	13153
1.18100	13146
1.18167	13139
1.18233	13131
1.18300	13124
1.18367	13117
1.18433	13110
1.18500	13103
1.18567	13096
1.18633	13090
1.18700	13083
1.18767	13077
1.18833	13071
1.18900	13064
1.18967	13058
1.19033	13053
1.19100	13047
1.19167	13041
1.19233	13036
1.19300	13031
1.19367	13026
1.19433	13021
1.19500	13016
1.19567	13012
1.19633	13007
1.19700	13003
1.19767	12999
1.19833	12996
1.19900	12992
1.19967	12989
1.20033	12986
1.20100	12982
1.20167	12980
1.20233	12977
1.20300	12974
1.20367	12972
1.20433	12970
1.20500	12967
1.20567	12966
1.20633	12964
1.20700	12962
1.20767	12961
1.20833	12959
1.20900	12958
1.20967	12957
1.21033	12956
1.21100	12956
1.21167	12955
1.21233	12955
1.21300	12955
1.21367	12955
1.21433	12955
1.21500	12955
1.21567	12955
1.21633	12956
1.21700	12956
1.21767	12957
1.21833	12958
1.21900	12959
1.21967	12960
1.22033	12961
1.22100	12962
1.22167	12964
1.22233	12965
1.22300	12967
1.22367	12969
1.22433	12970
1.22500	12972
1.22567	12974
1.22633	12976
1.22700	12979
1.22767	12981
1.22833	12983
1.22900	12986
1.22967	12988
1.23033	12991
1.23100	12993
1.23167	12996
1.23233	12999
1.23300	13002
1.23367	13005
1.23433	13007
1.23500	13010
1.23567	13013
1.23633	13016
1.23700	13019
1.23767	13022
1.23833	13025
1.23900	13028
1.23967	13032
1.24033	13035
1.24100	13038
1.24167	13042
1.24233	13046
1.24300	13050
1.24367	13054
1.24433	13059
1.24500	13064
1.24567	13069
1.24633	13075
1.24700	13082
1.24767	13089
1.24833	13096
1.24900	13105
1.24967	13114
1.25033	13125
1.25100	13136
1.25167	13148
1.25233	13162
1.25300	13177
1.25367	13192
1.25433	13210
1.25500	13228
1.25567	13248
1.25633	13269
1.25700	13291
1.25767	13314
1.25833	13338
1.25900	13363
1.25967	13389
1.26033	13416
1.26100	13443
1.26167	13471
1.26233	13500
1.26300	13529
1.26367	13558
1.26433	13587
1.26500	13616
1.26567	13645
1.26633	13673
1.26700	13702
1.26767	13729
1.26833	13756
1.26900	13783
1.26967	13808
1.27033	13832
1.27100	13856
1.27167	13878
1.27233	13899
1.27300	13919
1.27367	13938
1.27433	13955
1.27500	13971
1.27567	13986
1.27633	14000
1.27700	14012
1.27767	14023
1.27833	14032
1.27900	14040
1.27967	14047
1.28033	14053
1.28100	14057
1.28167	14060
1.28233	14062
1.28300	14063
1.28367	14063
1.28433	14061
1.28500	14059
1.28567	14056
1.28633	14051
1.28700	14046
1.28767	14040
1.28833	14033
1.28900	14025
1.28967	14016
1.29033	14007
1.29100	13997
1.29167	13986
1.29233	13975
1.29300	13963
1.29367	13951
1.29433	13938
1.29500	13924
1.29567	13911
1.29633	13896
1.29700	13882
1.29767	13867
1.29833	13852
1.29900	13836
1.29967	13820
1.30033	13804
1.30100	13788
1.30167	13771
1.30233	13754
1.30300	13737
1.30367	13720
1.30433	13702
1.30500	13685
1.30567	13667
1.30633	13649
1.30700	13632
1.30767	13614
1.30833	13596
1.30900	13577
1.30967	13559
1.31033	13541
1.31100	13522
1.31167	13504
1.31233	13486
1.31300	13467
1.31367	13448
1.31433	13430
1.31500	13411
1.31567	13393
1.31633	13374
1.31700	13355
1.31767	13337
1.31833	13318
1.31900	13299
1.31967	13280
1.32033	13262
1.32100	13243
1.32167	13224
1.32233	13205
1.32300	13187
1.32367	13168
1.32433	13149
1.32500	13131
1.32567	13112
1.32633	13094
1.32700	13075
1.32767	13057
1.32833	13038
1.32900	13020
1.32967	13002
1.33033	12984
1.33100	12966
1.33167	12948
1.33233	12930
1.33300	12912
1.33367	12895
1.33433	12877
1.33500	12860
1.33567	12843
1.33633	12825
1.33700	12808
1.33767	12791
1.33833	12775
1.33900	12758
1.33967	12741
1.34033	12725
1.34100	12709
1.34167	12693
1.34233	12677
1.34300	12661
1.34367	12645
1.34433	12629
1.34500	12614
1.34567	12599
1.34633	12584
1.34700	12569
1.34767	12554
1.34833	12539
1.34900	12525
1.34967	12510
1.35033	12496
1.35100	12482
1.35167	12468
1.35233	12454
1.35300	12441
1.35367	12427
1.35433	12414
1.35500	12400
1.35567	12387
1.35633	12374
1.35700	12361
1.35767	12348
1.35833	12336
1.35900	12323
1.35967	12311
1.36033	12298
1.36100	12286
1.36167	12274
1.36233	12262
1.36300	12250
1.36367	12239
1.36433	12227
1.36500	12216
1.36567	12204
1.36633	12193
1.36700	12182
1.36767	12171
1.36833	12160
1.36900	12150
1.36967	12139
1.37033	12129
1.37100	12118
1.37167	12108
1.37233	12098
1.37300	12087
1.37367	12077
1.37433	12067
1.37500	12058
1.37567	12048
1.37633	12038
1.37700	12028
1.37767	12019
1.37833	12009
1.37900	12000
1.37967	11990
1.38033	11981
1.38100	11972
1.38167	11963
1.38233	11954
1.38300	11945
1.38367	11936
1.38433	11928
1.38500	11919
1.38567	11910
1.38633	11902
1.38700	11893
1.38767	11885
1.38833	11876
1.38900	11868
1.38967	11860
1.39033	11851
1.39100	11843
1.39167	11835
1.39233	11827
1.39300	11819
1.39367	11811
1.39433	11803
1.39500	11795
1.39567	11787
1.39633	11779
1.39700	11771
1.39767	11764
1.39833	11756
1.39900	11748
1.39967	11740
1.40033	11733
1.40100	11725
1.40167	11717
1.40233	11710
1.40300	11702
1.40367	11694
1.40433	11687
1.40500	11679
1.40567	11672
1.40633	11664
1.40700	11657
1.40767	11650
1.40833	11642
1.40900	11635
1.40967	11628
1.41033	11621
1.41100	11614
1.41167	11607
1.41233	11600
1.41300	11593
1.41367	11586
1.41433	11579
1.41500	11573
1.41567	11566
1.41633	11559
1.41700	11553
1.41767	11546
1.41833	11540
1.41900	11533
1.41967	11527
1.42033	11520
1.42100	11514
1.42167	11508
1.42233	11501
1.42300	11495
1.42367	11489
1.42433	11483
1.42500	11476
1.42567	11470
1.42633	11464
1.42700	11458
1.42767	11452
1.42833	11446
1.42900	11440
1.42967	11434
1.43033	11428
1.43100	11422
1.43167	11416
1.43233	11410
1.43300	11404
1.43367	11398
1.43433	11392
1.43500	11386
1.43567	11380
1.43633	11374
1.43700	11368
1.43767	11363
1.43833	11357
1.43900	11351
1.43967	11345
1.44033	11340
1.44100	11334
1.44167	11328
1.44233	11323
1.44300	11317
1.44367	11312
1.44433	11307
1.44500	11302
1.44567	11296
1.44633	11291
1.44700	11287
1.44767	11282
1.44833	11277
1.44900	11273
1.44967	11268
1.45033	11264
1.45100	11260
1.45167	11256
1.45233	11252
1.45300	11249
1.45367	11245
1.45433	11242
1.45500	11239
1.45567	11235
1.45633	11232
1.45700	11229
1.45767	11226
1.45833	11224
1.45900	11221
1.45967	11218
1.46033	11216
1.46100	11213
1.46167	11210
1.46233	11208
1.46300	11206
1.46367	11203
1.46433	11201
1.46500	11198
1.46567	11195
1.46633	11193
1.46700	11190
1.46767	11187
1.46833	11185
1.46900	11182
1.46967	11179
1.47033	11176
1.47100	11173
1.47167	11170
1.47233	11167
1.47300	11163
1.47367	11160
1.47433	11156
1.47500	11153
1.47567	11149
1.47633	11145
1.47700	11141
1.47767	11137
1.47833	11133
1.47900	11128
1.47967	11124
1.48033	11120
1.48100	11115
1.48167	11110
1.48233	11106
1.48300	11101
1.48367	11096
1.48433	11091
1.48500	11086
1.48567	11081
1.48633	11076
1.48700	11070
1.48767	11065
1.48833	11060
1.48900	11054
1.48967	11049
1.49033	11043
1.49100	11037
1.49167	11032
1.49233	11026
1.49300	11020
1.49367	11014
1.49433	11008
1.49500	11003
1.49567	10997
1.49633	10991
1.49700	10985
1.49767	10979
1.49833	10973
1.49900	10967
1.49967	10961
1.50033	10956
1.50100	10950
1.50167	10944
1.50233	10938
1.50300	10932
1.50367	10926
1.50433	10921
1.50500	10915
1.50567	10909
1.50633	10903
1.50700	10898
1.50767	10892
1.50833	10886
1.50900	10881
1.50967	10875
1.51033	10870
1.51100	10864
1.51167	10858
1.51233	10853
1.51300	10847
1.51367	10842
1.51433	10837
1.51500	10831
1.51567	10826
1.51633	10821
1.51700	10815
1.51767	10810
1.51833	10805
1.51900	10800
1.51967	10794
1.52033	10789
1.52100	10784
1.52167	10779
1.52233	10774
1.52300	10769
1.52367	10764
1.52433	10759
1.52500	10755
1.52567	10750
1.52633	10745
1.52700	10740
1.52767	10735
1.52833	10730
1.52900	10726
1.52967	10721
1.53033	10716
1.53100	10711
1.53167	10707
1.53233	10702
1.53300	10697
1.53367	10693
1.53433	10688
1.53500	10683
1.53567	10678
1.53633	10674
1.53700	10669
1.53767	10664
1.53833	10660
1.53900	10655
1.53967	10651
1.54033	10646
1.54100	10641
1.54167	10637
1.54233	10632
1.54300	10628
1.54367	10623
1.54433	10619
1.54500	10615
1.54567	10610
1.54633	10606
1.54700	10602
1.54767	10598
1.54833	10593
1.54900	10589
1.54967	10585
1.55033	10581
1.55100	10577
1.55167	10572
1.55233	10568
1.55300	10564
1.55367	10560
1.55433	10556
1.55500	10552
1.55567	10548
1.55633	10544
1.55700	10540
1.55767	10536
1.55833	10533
1.55900	10529
1.55967	10525
1.56033	10521
1.56100	10518
1.56167	10514
1.56233	10510
1.56300	10507
1.56367	10503
1.56433	10499
1.56500	10496
1.56567	10492
1.56633	10488
1.56700	10484
1.56767	10481
1.56833	10477
1.56900	10473
1.56967	10469
1.57033	10466
1.57100	10462
1.57167	10458
1.57233	10454
1.57300	10450
1.57367	10447
1.57433	10443
1.57500	10439
1.57567	10436
1.57633	10432
1.57700	10428
1.57767	10425
1.57833	10421
1.57900	10417
1.57967	10414
1.58033	10410
1.58100	10407
1.58167	10403
1.58233	10400
1.58300	10396
1.58367	10393
1.58433	10389
1.58500	10386
1.58567	10382
1.58633	10379
1.58700	10376
1.58767	10373
1.58833	10369
1.58900	10366
1.58967	10363
1.59033	10360
1.59100	10357
1.59167	10353
1.59233	10350
1.59300	10347
1.59367	10344
1.59433	10341
1.59500	10338
1.59567	10335
1.59633	10332
1.59700	10329
1.59767	10326
1.59833	10323
1.59900	10320
1.59967	10317
1.60033	10314
1.60100	10311
1.60167	10308
1.60233	10305
1.60300	10302
1.60367	10299
1.60433	10296
1.60500	10293
1.60567	10290
1.60633	10287
1.60700	10284
1.60767	10281
1.60833	10278
1.60900	10276
1.60967	10273
1.61033	10270
1.61100	10267
1.61167	10264
1.61233	10261
1.61300	10258
1.61367	10256
1.61433	10253
1.61500	10250
1.61567	10248
1.61633	10245
1.61700	10242
1.61767	10240
1.61833	10237
1.61900	10235
1.61967	10232
1.62033	10230
1.62100	10228
1.62167	10225
1.62233	10223
1.62300	10221
1.62367	10219
1.62433	10216
1.62500	10214
1.62567	10212
1.62633	10210
1.62700	10208
1.62767	10206
1.62833	10204
1.62900	10202
1.62967	10200
1.63033	10199
1.63100	10197
1.63167	10195
1.63233	10193
1.63300	10192
1.63367	10190
1.63433	10189
1.63500	10188
1.63567	10186
1.63633	10185
1.63700	10184
1.63767	10182
1.63833	10181
1.63900	10180
1.63967	10178
1.64033	10177
1.64100	10176
1.64167	10174
1.64233	10173
1.64300	10172
1.64367	10171
1.64433	10170
1.64500	10168
1.64567	10167
1.64633	10166
1.64700	10164
1.64767	10163
1.64833	10162
1.64900	10161
1.64967	10159
1.65033	10158
1.65100	10157
1.65167	10155
1.65233	10154
1.65300	10152
1.65367	10151
1.65433	10150
1.65500	10148
1.65567	10147
1.65633	10145
1.65700	10144
1.65767	10143
1.65833	10141
1.65900	10140
1.65967	10138
1.66033	10137
1.66100	10135
1.66167	10134
1.66233	10133
1.66300	10131
1.66367	10130
1.66433	10128
1.66500	10127
1.66567	10126
1.66633	10124
1.66700	10123
1.66767	10122
1.66833	10120
1.66900	10119
1.66967	10117
1.67033	10116
1.67100	10114
1.67167	10112
1.67233	10111
1.67300	10109
1.67367	10107
1.67433	10105
1.67500	10104
1.67567	10102
1.67633	10100
1.67700	10098
1.67767	10096
1.67833	10094
1.67900	10092
1.67967	10090
1.68033	10088
1.68100	10085
1.68167	10083
1.68233	10081
1.68300	10078
1.68367	10076
1.68433	10073
1.68500	10071
1.68567	10068
1.68633	10065
1.68700	10063
1.68767	10060
1.68833	10057
1.68900	10054
1.68967	10051
1.69033	10048
1.69100	10044
1.69167	10041
1.69233	10038
1.69300	10035
1.69367	10032
1.69433	10028
1.69500	10025
1.69567	10022
1.69633	10019
1.69700	10015
1.69767	10012
1.69833	10008
1.69900	10005
1.69967	10002
1.70033	9998
1.70100	9995
1.70167	9991
1.70233	9988
1.70300	9985
1.70367	9981
1.70433	9978
1.70500	9974
1.70567	9971
1.70633	9968
1.70700	9964
1.70767	9961
1.70833	9958
1.70900	9955
1.70967	9952
1.71033	9949
1.71100	9946
1.71167	9943
1.71233	9940
1.71300	9937
1.71367	9934
1.71433	9932
1.71500	9929
1.71567	9927
1.71633	9926
1.71700	9924
1.71767	9923
1.71833	9922
1.71900	9922
1.71967	9923
1.72033	9925
1.72100	9928
1.72167	9933
1.72233	9940
1.72300	9948
1.72367	9960
1.72433	9975
1.72500	9994
1.72567	10019
1.72633	10049
1.72700	10086
1.72767	10132
1.72833	10188
1.72900	10256
1.72967	10338
1.73033	10437
1.73100	10555
1.73167	10697
1.73233	10865
1.73300	11063
1.73367	11298
1.73433	11574
1.73500	11897
1.73567	12273
1.73633	12711
1.73700	13218
1.73767	13803
1.73833	14476
1.73900	15248
1.73967	16130
1.74033	17135
1.74100	18275
1.74167	19565
1.74233	21022
1.74300	22663
1.74367	24506
1.74433	26569
1.74500	28870
1.74567	31428
1.74633	34263
1.74700	37399
1.74767	40856
1.74833	44658
1.74900	48827
1.74967	53387
1.75033	58359
1.75100	63766
1.75167	69627
1.75233	75963
1.75300	82795
1.75367	90145
1.75433	98033
1.75500	106480
1.75567	115501
1.75633	125114
1.75700	135332
1.75767	146170
1.75833	157645
1.75900	169770
1.75967	182563
1.76033	196036
1.76100	210204
1.76167	225075
1.76233	240658
1.76300	256957
1.76367	273975
1.76433	291708
1.76500	310151
1.76567	329299
1.76633	349145
1.76700	369674
1.76767	390871
1.76833	412716
1.76900	435180
1.76967	458226
1.77033	481818
1.77100	505912
1.77167	530465
1.77233	555426
1.77300	580747
1.77367	606368
1.77433	632228
1.77500	658256
1.77567	684376
1.77633	710502
1.77700	736535
1.77767	762360
1.77833	787861
1.77900	812909
1.77967	837370
1.78033	861103
1.78100	883977
1.78167	905863
1.78233	926640
1.78300	946199
1.78367	964450
1.78433	981312
1.78500	996719
1.78567	1010622
1.78633	1022988
1.78700	1033799
1.78767	1043051
1.78833	1050756
1.78900	1056934
1.78967	1061619
1.79033	1064853
1.79100	1066687
1.79167	1067175
1.79233	1066377
1.79300	1064357
1.79367	1061178
1.79433	1056908
1.79500	1051611
1.79567	1045353
1.79633	1038200
1.79700	1030215
1.79767	1021461
1.79833	1011998
1.79900	1001884
1.79967	991175
1.80033	979925
1.80100	968184
1.80167	956001
1.80233	943422
1.80300	930492
1.80367	917250
1.80433	903737
1.80500	889989
1.80567	876040
1.80633	861924
1.80700	847671
1.80767	833310
1.80833	818866
1.80900	804367
1.80967	789834
1.81033	775290
1.81100	760754
1.81167	746246
1.81233	731784
1.81300	717382
1.81367	703057
1.81433	688822
1.81500	674690
1.81567	660672
1.81633	646779
1.81700	633022
1.81767	619408
1.81833	605946
1.81900	592643
1.81967	579505
1.82033	566540
1.82100	553751
1.82167	541144
1.82233	528722
1.82300	516490
1.82367	504449
1.82433	492603
1.82500	480953
1.82567	469502
1.82633	458251
1.82700	447200
1.82767	436350
1.82833	425701
1.82900	415254
1.82967	405008
1.83033	394962
1.83100	385116
1.83167	375469
1.83233	366019
1.83300	356766
1.83367	347707
1.83433	338841
1.83500	330166
1.83567	321681
1.83633	313383
1.83700	305269
1.83767	297339
1.83833	289589
1.83900	282017
1.83967	274620
1.84033	267397
1.84100	260343
1.84167	253458
1.84233	246737
1.84300	240178
1.84367	233779
1.84433	227537
1.84500	221449
1.84567	215512
1.84633	209723
1.84700	204080
1.84767	198580
1.84833	193219
1.84900	187997
1.84967	182908
1.85033	177951
1.85100	173124
1.85167	168423
1.85233	163845
1.85300	159388
1.85367	155050
1.85433	150828
1.85500	146718
1.85567	142719
1.85633	138829
1.85700	135044
1.85767	131362
1.85833	127780
1.85900	124298
1.85967	120911
1.86033	117618
1.86100	114416
1.86167	111303
1.86233	108278
1.86300	105337
1.86367	102479
1.86433	99702
1.86500	97003
1.86567	94381
1.86633	91834
1.86700	89359
1.86767	86956
1.86833	84621
1.86900	82353
1.86967	80151
1.87033	78013
1.87100	75936
1.87167	73920
1.87233	71962
1.87300	70062
1.87367	68217
1.87433	66426
1.87500	64688
1.87567	63001
1.87633	61363
1.87700	59774
1.87767	58232
1.87833	56735
1.87900	55283
1.87967	53875
1.88033	52508
1.88100	51181
1.88167	49895
1.88233	48647
1.88300	47436
1.88367	46262
1.88433	45123
1.88500	44019
1.88567	42948
1.88633	41909
1.88700	40901
1.88767	39925
1.88833	38978
1.88900	38059
1.88967	37169
1.89033	36306
1.89100	35470
1.89167	34659
1.89233	33873
1.89300	33111
1.89367	32373
1.89433	31657
1.89500	30964
1.89567	30292
1.89633	29641
1.89700	29010
1.89767	28398
1.89833	27806
1.89900	27232
1.89967	26676
1.90033	26138
1.90100	25616
1.90167	25111
1.90233	24621
1.90300	24147
1.90367	23687
1.90433	23242
1.90500	22811
1.90567	22393
1.90633	21989
1.90700	21597
1.90767	21218
1.90833	20850
1.90900	20494
1.90967	20149
1.91033	19815
1.91100	19491
1.91167	19178
1.91233	18875
1.91300	18581
1.91367	18296
1.91433	18020
1.91500	17753
1.91567	17494
1.91633	17244
1.91700	17001
1.91767	16766
1.91833	16538
1.91900	16318
1.91967	16105
1.92033	15898
1.92100	15697
1.92167	15504
1.92233	15316
1.92300	15134
1.92367	14957
1.92433	14787
1.92500	14621
1.92567	14461
1.92633	14306
1.92700	14155
1.92767	14010
1.92833	13868
1.92900	13732
1.92967	13599
1.93033	13471
1.93100	13347
1.93167	13226
1.93233	13109
1.93300	12996
1.93367	12886
1.93433	12780
1.93500	12677
1.93567	12577
1.93633	12480
1.93700	12385
1.93767	12294
1.93833	12206
1.93900	12120
1.93967	12036
1.94033	11955
1.94100	11877
1.94167	11800
1.94233	11726
1.94300	11655
1.94367	11585
1.94433	11517
1.94500	11451
1.94567	11387
1.94633	11325
1.94700	11265
1.94767	11206
1.94833	11149
1.94900	11094
1.94967	11040
1.95033	10988
1.95100	10938
1.95167	10888
1.95233	10841
1.95300	10794
1.95367	10749
1.95433	10705
1.95500	10662
1.95567	10620
1.95633	10580
1.95700	10540
1.95767	10502
1.95833	10465
1.95900	10428
1.95967	10393
1.96033	10359
1.96100	10325
1.96167	10292
1.96233	10261
1.96300	10230
1.96367	10199
1.96433	10170
1.96500	10141
1.96567	10113
1.96633	10086
1.96700	10060
1.96767	10034
1.96833	10009
1.96900	9984
1.96967	9960
1.97033	9937
1.97100	9914
1.97167	9892
1.97233	9870
1.97300	9849
1.97367	9828
1.97433	9808
1.97500	9788
1.97567	9769
1.97633	9750
1.97700	9732
1.97767	9714
1.97833	9696
1.97900	9679
1.97967	9663
1.98033	9646
1.98100	9630
1.98167	9615
1.98233	9600
1.98300	9585
1.98367	9570
1.98433	9556
1.98500	9542
1.98567	9529
1.98633	9515
1.98700	9503
1.98767	9490
1.98833	9477
1.98900	9465
1.98967	9453
1.99033	9442
1.99100	9430
1.99167	9419
1.99233	9408
1.99300	9398
1.99367	9387
1.99433	9377
1.99500	9367
1.99567	9357
1.99633	9348
1.99700	9339
1.99767	9329
1.99833	9321
1.99900	9312
1.99967	9303
2.00033	9295
2.00100	9286
2.00167	9278
2.00233	9270
2.00300	9262
2.00367	9255
2.00433	9247
2.00500	9240
2.00567	9232
2.00633	9225
2.00700	9218
2.00767	9210
2.00833	9203
2.00900	9196
2.00967	9189
2.01033	9182
2.01100	9175
2.01167	9169
2.01233	9162
2.01300	9155
2.01367	9149
2.01433	9142
2.01500	9136
2.01567	9129
2.01633	9123
2.01700	9116
2.01767	9110
2.01833	9104
2.01900	9098
2.01967	9091
2.02033	9085
2.02100	9079
2.02167	9073
2.02233	9067
2.02300	9061
2.02367	9055
2.02433	9049
2.02500	9043
2.02567	9037
2.02633	9031
2.02700	9025
2.02767	9020
2.02833	9014
2.02900	9008
2.02967	9003
2.03033	8997
2.03100	8992
2.03167	8986
2.03233	8981
2.03300	8976
2.03367	8970
2.03433	8965
2.03500	8960
2.03567	8955
2.03633	8950
2.03700	8945
2.03767	8940
2.03833	8935
2.03900	8930
2.03967	8925
2.04033	8920
2.04100	8915
2.04167	8911
2.04233	8906
2.04300	8902
2.04367	8897
2.04433	8892
2.04500	8888
2.04567	8883
2.04633	8879
2.04700	8875
2.04767	8870
2.04833	8866
2.04900	8861
2.04967	8857
2.05033	8853
2.05100	8848
2.05167	8844
2.05233	8840
2.05300	8836
2.05367	8831
2.05433	8827
2.05500	8823
2.05567	8819
2.05633	8814
2.05700	8810
2.05767	8806
2.05833	8802
2.05900	8798
2.05967	8794
2.06033	8790
2.06100	8786
2.06167	8782
2.06233	8778
2.06300	8775
2.06367	8771
2.06433	8767
2.06500	8763
2.06567	8760
2.06633	8756
2.06700	8753
2.06767	8749
2.06833	8746
2.06900	8742
2.06967	8739
2.07033	8735
2.07100	8732
2.07167	8728
2.07233	8725
2.07300	8721
2.07367	8718
2.07433	8715
2.07500	8711
2.07567	8708
2.07633	8704
2.07700	8701
2.07767	8697
2.07833	8694
2.07900	8690
2.07967	8687
2.08033	8683
2.08100	8680
2.08167	8676
2.08233	8673
2.08300	8669
2.08367	8666
2.08433	8663
2.08500	8659
2.08567	8656
2.08633	8653
2.08700	8649
2.08767	8646
2.08833	8643
2.08900	8640
2.08967	8637
2.09033	8634
2.09100	8631
2.09167	8628
2.09233	8625
2.09300	8622
2.09367	8619
2.09433	8616
2.09500	8613
2.09567	8611
2.09633	8608
2.09700	8605
2.09767	8603
2.09833	8600
2.09900	8597
2.09967	8594
2.10033	8592
2.10100	8589
2.10167	8586
2.10233	8584
2.10300	8581
2.10367	8578
2.10433	8575
2.10500	8573
2.10567	8570
2.10633	8567
2.10700	8564
2.10767	8561
2.10833	8559
2.10900	8556
2.10967	8553
2.11033	8550
2.11100	8547
2.11167	8545
2.11233	8542
2.11300	8539
2.11367	8537
2.11433	8534
2.11500	8531
2.11567	8529
2.11633	8526
2.11700	8524
2.11767	8521
2.11833	8518
2.11900	8516
2.11967	8513
2.12033	8511
2.12100	8508
2.12167	8505
2.12233	8502
2.12300	8500
2.12367	8497
2.12433	8494
2.12500	8491
2.12567	8489
2.12633	8486
2.12700	8483
2.12767	8480
2.12833	8478
2.12900	8475
2.12967	8472
2.13033	8469
2.13100	8466
2.13167	8463
2.13233	8460
2.13300	8457
2.13367	8454
2.13433	8451
2.13500	8448
2.13567	8445
2.13633	8442
2.13700	8439
2.13767	8436
2.13833	8433
2.13900	8430
2.13967	8427
2.14033	8424
2.14100	8421
2.14167	8418
2.14233	8415
2.14300	8412
2.14367	8409
2.14433	8406
2.14500	8403
2.14567	8401
2.14633	8398
2.14700	8395
2.14767	8392
2.14833	8390
2.14900	8387
2.14967	8384
2.15033	8381
2.15100	8379
2.15167	8376
2.15233	8373
2.15300	8370
2.15367	8368
2.15433	8365
2.15500	8362
2.15567	8359
2.15633	8356
2.15700	8354
2.15767	8351
2.15833	8348
2.15900	8345
2.15967	8342
2.16033	8339
2.16100	8337
2.16167	8334
2.16233	8331
2.16300	8328
2.16367	8325
2.16433	8323
2.16500	8320
2.16567	8317
2.16633	8314
2.16700	8312
2.16767	8309
2.16833	8306
2.16900	8304
2.16967	8301
2.17033	8298
2.17100	8296
2.17167	8293
2.17233	8291
2.17300	8288
2.17367	8286
2.17433	8283
2.17500	8280
2.17567	8278
2.17633	8275
2.17700	8273
2.17767	8270
2.17833	8268
2.17900	8265
2.17967	8263
2.18033	8260
2.18100	8258
2.18167	8256
2.18233	8253
2.18300	8251
2.18367	8248
2.18433	8246
2.18500	8244
2.18567	8242
2.18633	8240
2.18700	8237
2.18767	8235
2.18833	8233
2.18900	8231
2.18967	8229
2.19033	8227
2.19100	8225
2.19167	8224
2.19233	8222
2.19300	8220
2.19367	8218
2.19433	8216
2.19500	8214
2.19567	8213
2.19633	8211
2.19700	8209
2.19767	8208
2.19833	8206
2.19900	8205
2.19967	8203
2.20033	8201
2.20100	8200
2.20167	8198
2.20233	8197
2.20300	8195
2.20367	8194
2.20433	8192
2.20500	8191
2.20567	8189
2.20633	8188
2.20700	8187
2.20767	8185
2.20833	8184
2.20900	8183
2.20967	8182
2.21033	8181
2.21100	8180
2.21167	8178
2.21233	8177
2.21300	8176
2.21367	8175
2.21433	8175
2.21500	8174
2.21567	8173
2.21633	8172
2.21700	8171
2.21767	8170
2.21833	8170
2.21900	8169
2.21967	8168
2.22033	8168
2.22100	8167
2.22167	8167
2.22233	8167
2.22300	8166
2.22367	8166
2.22433	8165
2.22500	8165
2.22567	8165
2.22633	8164
2.22700	8164
2.22767	8163
2.22833	8163
2.22900	8163
2.22967	8162
2.23033	8162
2.23100	8161
2.23167	8161
2.23233	8160
2.23300	8160
2.23367	8159
2.23433	8158
2.23500	8158
2.23567	8157
2.23633	8156
2.23700	8156
2.23767	8155
2.23833	8154
2.23900	8153
2.23967	8152
2.24033	8151
2.24100	8150
2.24167	8149
2.24233	8149
2.24300	8148
2.24367	8147
2.24433	8146
2.24500	8145
2.24567	8144
2.24633	8143
2.24700	8141
2.24767	8140
2.24833	8139
2.24900	8138
2.24967	8137
2.25033	8136
2.25100	8135
2.25167	8134
2.25233	8132
2.25300	8131
2.25367	8130
2.25433	8129
2.25500	8128
2.25567	8127
2.25633	8125
2.25700	8124
2.25767	8123
2.25833	8122
2.25900	8120
2.25967	8119
2.26033	8118
2.26100	8116
2.26167	8115
2.26233	8114
2.26300	8112
2.26367	8111
2.26433	8110
2.26500	8108
2.26567	8107
2.26633	8105
2.26700	8104
2.26767	8102
2.26833	8101
2.26900	8100
2.26967	8098
2.27033	8097
2.27100	8095
2.27167	8094
2.27233	8092
2.27300	8091
2.27367	8089
2.27433	8088
2.27500	8086
2.27567	8085
2.27633	8083
2.27700	8082
2.27767	8080
2.27833	8078
2.27900	8077
2.27967	8075
2.28033	8074
2.28100	8072
2.28167	8071
2.28233	8069
2.28300	8068
2.28367	8066
2.28433	8064
2.28500	8063
2.28567	8061
2.28633	8060
2.28700	8058
2.28767	8057
2.28833	8055
2.28900	8053
2.28967	8052
2.29033	8050
2.29100	8049
2.29167	8047
2.29233	8046
2.29300	8044
2.29367	8043
2.29433	8042
2.29500	8040
2.29567	8039
2.29633	8038
2.29700	8036
2.29767	8035
2.29833	8034
2.29900	8032
2.29967	8031
2.30033	8030
2.30100	8029
2.30167	8027
2.30233	8026
2.30300	8025
2.30367	8024
2.30433	8022
2.30500	8021
2.30567	8020
2.30633	8019
2.30700	8017
2.30767	8016
2.30833	8015
2.30900	8014
2.30967	8012
2.31033	8011
2.31100	8010
2.31167	8009
2.31233	8008
2.31300	8007
2.31367	8005
2.31433	8004
2.31500	8003
2.31567	8003
2.31633	8002
2.31700	8001
2.31767	8000
2.31833	7999
2.31900	7998
2.31967	7997
2.32033	7997
2.32100	7996
2.32167	7995
2.32233	7994
2.32300	7994
2.32367	7993
2.32433	7992
2.32500	7991
2.32567	7991
2.32633	7990
2.32700	7989
2.32767	7989
2.32833	7988
2.32900	7988
2.32967	7987
2.33033	7987
2.33100	7986
2.33167	7986
2.33233	7986
2.33300	7985
2.33367	7985
2.33433	7984
2.33500	7984
2.33567	7984
2.33633	7983
2.33700	7983
2.33767	7982
2.33833	7982
2.33900	7982
2.33967	7981
2.34033	7981
2.34100	7981
2.34167	7981
2.34233	7980
2.34300	7980
2.34367	7980
2.34433	7980
2.34500	7980
2.34567	7980
2.34633	7980
2.34700	7980
2.34767	7980
2.34833	7980
2.34900	7980
2.34967	7980
2.35033	7981
2.35100	7981
2.35167	7981
2.35233	7982
2.35300	7982
2.35367	7983
2.35433	7983
2.35500	7984
2.35567	7985
2.35633	7985
2.35700	7986
2.35767	7987
2.35833	7988
2.35900	7989
2.35967	7990
2.36033	7991
2.36100	7992
2.36167	7993
2.36233	7994
2.36300	7995
2.36367	7996
2.36433	7997
2.36500	7998
2.36567	7999
2.36633	8000
2.36700	8001
2.36767	8001
2.36833	8002
2.36900	8003
2.36967	8004
2.37033	8004
2.37100	8005
2.37167	8005
2.37233	8006
2.37300	8006
2.37367	8007
2.37433	8007
2.37500	8007
2.37567	8008
2.37633	8008
2.37700	8008
2.37767	8008
2.37833	8008
2.37900	8008
2.37967	8008
2.38033	8008
2.38100	8008
2.38167	8007
2.38233	8007
2.38300	8006
2.38367	8006
2.38433	8005
2.38500	8004
2.38567	8004
2.38633	8003
2.38700	8002
2.38767	8001
2.38833	8000
2.38900	7998
2.38967	7997
2.39033	7996
2.39100	7995
2.39167	7994
2.39233	7992
2.39300	7991
2.39367	7990
2.39433	7989
2.39500	7987
2.39567	7986
2.39633	7984
2.39700	7983
2.39767	7982
2.39833	7980
2.39900	7979
2.39967	7977
2.40033	7976
2.40100	7974
2.40167	7972
2.40233	7971
2.40300	7969
2.40367	7968
2.40433	7966
2.40500	7965
2.40567	7963
2.40633	7962
2.40700	7960
2.40767	7958
2.40833	7957
2.40900	7955
2.40967	7953
2.41033	7952
2.41100	7950
2.41167	7948
2.41233	7947
2.41300	7945
2.41367	7944
2.41433	7942
2.41500	7941
2.41567	7939
2.41633	7938
2.41700	7936
2.41767	7935
2.41833	7933
2.41900	7931
2.41967	7930
2.42033	7928
2.42100	7927
2.42167	7925
2.42233	7924
2.42300	7922
2.42367	7920
2.42433	7919
2.42500	7917
2.42567	7916
2.42633	7914
2.42700	7912
2.42767	7911
2.42833	7909
2.42900	7908
2.42967	7906
2.43033	7904
2.43100	7903
2.43167	7901
2.43233	7900
2.43300	7898
2.43367	7896
2.43433	7895
2.43500	7893
2.43567	7891
2.43633	7889
2.43700	7887
2.43767	7885
2.43833	7883
2.43900	7882
2.43967	7880
2.44033	7877
2.44100	7875
2.44167	7873
2.44233	7871
2.44300	7869
2.44367	7867
2.44433	7864
2.44500	7862
2.44567	7860
2.44633	7858
2.44700	7856
2.44767	7853
2.44833	7851
2.44900	7849
2.44967	7846
2.45033	7844
2.45100	7842
2.45167	7839
2.45233	7837
2.45300	7835
2.45367	7832
2.45433	7830
2.45500	7827
2.45567	7825
2.45633	7822
2.45700	7820
2.45767	7817
2.45833	7815
2.45900	7812
2.45967	7810
2.46033	7807
2.46100	7805
2.46167	7802
2.46233	7800
2.46300	7797
2.46367	7795
2.46433	7792
2.46500	7790
2.46567	7788
2.46633	7785
2.46700	7783
2.46767	7780
2.46833	7778
2.46900	7775
2.46967	7773
2.47033	7771
2.47100	7768
2.47167	7766
2.47233	7764
2.47300	7761
2.47367	7759
2.47433	7757
2.47500	7754
2.47567	7752
2.47633	7750
2.47700	7748
2.47767	7746
2.47833	7743
2.47900	7741
2.47967	7739
2.48033	7736
2.48100	7734
2.48167	7732
2.48233	7730
2.48300	7728
2.48367	7725
2.48433	7723
2.48500	7721
2.48567	7719
2.48633	7716
2.48700	7714
2.48767	7712
2.48833	7710
2.48900	7707
2.48967	7705
2.49033	7703
2.49100	7700
2.49167	7698
2.49233	7695
2.49300	7693
2.49367	7691
2.49433	7688
2.49500	7686
2.49567	7683
2.49633	7681
2.49700	7679
2.49767	7676
2.49833	7674
2.49900	7671
2.49967	7669
2.50033	7666
2.50100	7664
2.50167	7662
2.50233	7659
2.50300	7657
2.50367	7654
2.50433	7652
2.50500	7649
2.50567	7646
2.50633	7644
2.50700	7641
2.50767	7638
2.50833	7636
2.50900	7633
2.50967	7630
2.51033	7628
2.51100	7625
2.51167	7622
2.51233	7619
2.51300	7617
2.51367	7614
2.51433	7611
2.51500	7608
2.51567	7606
2.51633	7603
2.51700	7600
2.51767	7598
2.51833	7595
2.51900	7592
2.51967	7590
2.52033	7587
2.52100	7584
2.52167	7581
2.52233	7578
2.52300	7576
2.52367	7573
2.52433	7570
2.52500	7567
2.52567	7565
2.52633	7562
2.52700	7559
2.52767	7556
2.52833	7554
2.52900	7551
2.52967	7548
2.53033	7545
2.53100	7542
2.53167	7539
2.53233	7537
2.53300	7534
2.53367	7531
2.53433	7528
2.53500	7525
2.53567	7522
2.53633	7519
2.53700	7516
2.53767	7513
2.53833	7510
2.53900	7508
2.53967	7505
2.54033	7502
2.54100	7499
2.54167	7496
2.54233	7493
2.54300	7490
2.54367	7488
2.54433	7485
2.54500	7482
2.54567	7479
2.54633	7476
2.54700	7473
2.54767	7471
2.54833	7468
2.54900	7465
2.54967	7462
2.55033	7459
2.55100	7457
2.55167	7454
2.55233	7451
2.55300	7448
2.55367	7446
2.55433	7443
2.55500	7440
2.55567	7438
2.55633	7435
2.55700	7433
2.55767	7430
2.55833	7428
2.55900	7425
2.55967	7423
2.56033	7420
2.56100	7418
2.56167	7415
2.56233	7413
2.56300	7410
2.56367	7408
2.56433	7406
2.56500	7403
2.56567	7401
2.56633	7399
2.56700	7396
2.56767	7394
2.56833	7391
2.56900	7389
2.56967	7387
2.57033	7385
2.57100	7383
2.57167	7380
2.57233	7378
2.57300	7376
2.57367	7374
2.57433	7373
2.57500	7371
2.57567	7369
2.57633	7367
2.57700	7365
2.57767	7364
2.57833	7362
2.57900	7360
2.57967	7358
2.58033	7357
2.58100	7355
2.58167	7353
2.58233	7351
2.58300	7350
2.58367	7348
2.58433	7347
2.58500	7345
2.58567	7344
2.58633	7342
2.58700	7341
2.58767	7339
2.58833	7338
2.58900	7336
2.58967	7335
2.59033	7334
2.59100	7332
2.59167	7331
2.59233	7329
2.59300	7328
2.59367	7327
2.59433	7325
2.59500	7324
2.59567	7323
2.59633	7321
2.59700	7320
2.59767	7319
2.59833	7317
2.59900	7316
2.59967	7315
2.60033	7313
2.60100	7312
2.60167	7311
2.60233	7310
2.60300	7308
2.60367	7307
2.60433	7306
2.60500	7305
2.60567	7304
2.60633	7303
2.60700	7302
2.60767	7300
2.60833	7299
2.60900	7298
2.60967	7297
2.61033	7296
2.61100	7295
2.61167	7294
2.61233	7292
2.61300	7291
2.61367	7290
2.61433	7289
2.61500	7288
2.61567	7286
2.61633	7285
2.61700	7284
2.61767	7283
2.61833	7281
2.61900	7280
2.61967	7279
2.62033	7278
2.62100	7277
2.62167	7275
2.62233	7274
2.62300	7273
2.62367	7271
2.62433	7270
2.62500	7269
2.62567	7267
2.62633	7266
2.62700	7265
2.62767	7263
2.62833	7262
2.62900	7260
2.62967	7259
2.63033	7257
2.63100	7255
2.63167	7254
2.63233	7252
2.63300	7251
2.63367	7249
2.63433	7247
2.63500	7246
2.63567	7244
2.63633	7242
2.63700	7241
2.63767	7239
2.63833	7237
2.63900	7236
2.63967	7234
2.64033	7232
2.64100	7231
2.64167	7229
2.64233	7227
2.64300	7225
2.64367	7223
2.64433	7221
2.64500	7220
2.64567	7218
2.64633	7216
2.64700	7214
2.64767	7212
2.64833	7210
2.64900	7208
2.64967	7207
2.65033	7205
2.65100	7203
2.65167	7201
2.65233	7199
2.65300	7197
2.65367	7195
2.65433	7193
2.65500	7191
2.65567	7189
2.65633	7187
2.65700	7185
2.65767	7183
2.65833	7181
2.65900	7178
2.65967	7176
2.66033	7174
2.66100	7172
2.66167	7170
2.66233	7168
2.66300	7166
2.66367	7164
2.66433	7162
2.66500	7160
2.66567	7158
2.66633	7156
2.66700	7155
2.66767	7153
2.66833	7151
2.66900	7149
2.66967	7147
2.67033	7145
2.67100	7143
2.67167	7141
2.67233	7139
2.67300	7137
2.67367	7136
2.67433	7134
2.67500	7132
2.67567	7130
2.67633	7128
2.67700	7126
2.67767	7125
2.67833	7123
2.67900	7121
2.67967	7119
2.68033	7118
2.68100	7116
2.68167	7114
2.68233	7113
2.68300	7111
2.68367	7109
2.68433	7108
2.68500	7106
2.68567	7104
2.68633	7103
2.68700	7101
2.68767	7099
2.68833	7098
2.68900	7096
2.68967	7094
2.69033	7093
2.69100	7091
2.69167	7089
2.69233	7088
2.69300	7086
2.69367	7084
2.69433	7083
2.69500	7081
2.69567	7080
2.69633	7078
2.69700	7076
2.69767	7075
2.69833	7073
2.69900	7071
2.69967	7070
2.70033	7068
2.70100	7066
2.70167	7065
2.70233	7063
2.70300	7062
2.70367	7060
2.70433	7059
2.70500	7057
2.70567	7055
2.70633	7054
2.70700	7052
2.70767	7051
2.70833	7050
2.70900	7048
2.70967	7047
2.71033	7045
2.71100	7044
2.71167	7042
2.71233	7041
2.71300	7040
2.71367	7038
2.71433	7037
2.71500	7035
2.71567	7034
2.71633	7032
2.71700	7031
2.71767	7030
2.71833	7028
2.71900	7027
2.71967	7025
2.72033	7024
2.72100	7023
2.72167	7021
2.72233	7020
2.72300	7019
2.72367	7017
2.72433	7016
2.72500	7015
2.72567	7014
2.72633	7012
2.72700	7011
2.72767	7010
2.72833	7009
2.72900	7007
2.72967	7006
2.73033	7005
2.73100	7004
2.73167	7002
2.73233	7001
2.73300	7000
2.73367	6999
2.73433	6998
2.73500	6996
2.73567	6995
2.73633	6994
2.73700	6993
2.73767	6991
2.73833	6990
2.73900	6989
2.73967	6987
2.74033	6986
2.74100	6985
2.74167	6983
2.74233	6982
2.74300	6980
2.74367	6979
2.74433	6978
2.74500	6976
2.74567	6975
2.74633	6973
2.74700	6972
2.74767	6971
2.74833	6969
2.74900	6968
2.74967	6967
2.75033	6966
2.75100	6965
2.75167	6963
2.75233	6962
2.75300	6961
2.75367	6960
2.75433	6959
2.75500	6958
2.75567	6957
2.75633	6956
2.75700	6955
2.75767	6954
2.75833	6953
2.75900	6952
2.75967	6951
2.76033	6950
2.76100	6949
2.76167	6948
2.76233	6948
2.76300	6947
2.76367	6946
2.76433	6945
2.76500	6945
2.76567	6944
2.76633	6944
2.76700	6943
2.76767	6942
2.76833	6942
2.76900	6941
2.76967	6941
2.77033	6941
2.77100	6940
2.77167	6940
2.77233	6940
2.77300	6940
2.77367	6939
2.77433	6939
2.77500	6939
2.77567	6939
2.77633	6939
2.77700	6939
2.77767	6939
2.77833	6939
2.77900	6939
2.77967	6940
2.78033	6940
2.78100	6940
2.78167	6940
2.78233	6941
2.78300	6941
2.78367	6942
2.78433	6942
2.78500	6943
2.78567	6943
2.78633	6944
2.78700	6945
2.78767	6945
2.78833	6946
2.78900	6947
2.78967	6947
2.79033	6948
2.79100	6949
2.79167	6950
2.79233	6950
2.79300	6951
2.79367	6952
2.79433	6953
2.79500	6954
2.79567	6955
2.79633	6956
2.79700	6956
2.79767	6957
2.79833	6958
2.79900	6959
2.79967	6960
2.80033	6960
2.80100	6961
2.80167	6962
2.80233	6962
2.80300	6963
2.80367	6964
2.80433	6964
2.80500	6965
2.80567	6965
2.80633	6966
2.80700	6966
2.80767	6967
2.80833	6967
2.80900	6968
2.80967	6968
2.81033	6968
2.81100	6969
2.81167	6969
2.81233	6969
2.81300	6970
2.81367	6970
2.81433	6970
2.81500	6970
2.81567	6970
2.81633	6971
2.81700	6971
2.81767	6971
2.81833	6971
2.81900	6971
2.81967	6971
2.82033	6972
2.82100	6972
2.82167	6972
2.82233	6972
2.82300	6972
2.82367	6972
2.82433	6972
2.82500	6972
2.82567	6971
2.82633	6971
2.82700	6971
2.82767	6971
2.82833	6971
2.82900	6970
2.82967	6970
2.83033	6970
2.83100	6970
2.83167	6969
2.83233	6969
2.83300	6969
2.83367	6968
2.83433	6968
2.83500	6967
2.83567	6967
2.83633	6966
2.83700	6966
2.83767	6965
2.83833	6965
2.83900	6964
2.83967	6964
2.84033	6963
2.84100	6963
2.84167	6962
2.84233	6961
2.84300	6961
2.84367	6960
2.84433	6960
2.84500	6959
2.84567	6959
2.84633	6958
2.84700	6958
2.84767	6957
2.84833	6957
2.84900	6956
2.84967	6956
2.85033	6955
2.85100	6954
2.85167	6954
2.85233	6953
2.85300	6952
2.85367	6952
2.85433	6951
2.85500	6951
2.85567	6950
2.85633	6950
2.85700	6949
2.85767	6948
2.85833	6948
2.85900	6948
2.85967	6947
2.86033	6947
2.86100	6946
2.86167	6946
2.86233	6945
2.86300	6945
2.86367	6944
2.86433	6944
2.86500	6943
2.86567	6943
2.86633	6943
2.86700	6942
2.86767	6942
2.86833	6941
2.86900	6941
2.86967	6941
2.87033	6940
2.87100	6940
2.87167	6940
2.87233	6940
2.87300	6940
2.87367	6940
2.87433	6940
2.87500	6940
2.87567	6940
2.87633	6940
2.87700	6940
2.87767	6941
2.87833	6941
2.87900	6942
2.87967	6942
2.88033	6943
2.88100	6944
2.88167	6945
2.88233	6946
2.88300	6947
2.88367	6948
2.88433	6949
2.88500	6951
2.88567	6952
2.88633	6954
2.88700	6956
2.88767	6958
2.88833	6960
2.88900	6962
2.88967	6964
2.89033	6967
2.89100	6969
2.89167	6972
2.89233	6975
2.89300	6978
2.89367	6981
2.89433	6984
2.89500	6988
2.89567	6991
2.89633	6995
2.89700	6999
2.89767	7003
2.89833	7007
2.89900	7011
2.89967	7015
2.90033	7019
2.90100	7024
2.90167	7028
2.90233	7033
2.90300	7037
2.90367	7042
2.90433	7046
2.90500	7051
2.90567	7055
2.90633	7060
2.90700	7065
2.90767	7069
2.90833	7074
2.90900	7078
2.90967	7083
2.91033	7087
2.91100	7091
2.91167	7095
2.91233	7099
2.91300	7103
2.91367	7107
2.91433	7111
2.91500	7114
2.91567	7117
2.91633	7120
2.91700	7123
2.91767	7126
2.91833	7128
2.91900	7130
2.91967	7132
2.92033	7134
2.92100	7135
2.92167	7136
2.92233	7137
2.92300	7138
2.92367	7138
2.92433	7138
2.92500	7138
2.92567	7137
2.92633	7136
2.92700	7135
2.92767	7134
2.92833	7132
2.92900	7130
2.92967	7128
2.93033	7126
2.93100	7123
2.93167	7120
2.93233	7117
2.93300	7113
2.93367	7109
2.93433	7105
2.93500	7101
2.93567	7097
2.93633	7092
2.93700	7087
2.93767	7082
2.93833	7076
2.93900	7071
2.93967	7065
2.94033	7059
2.94100	7053
2.94167	7046
2.94233	7040
2.94300	7033
2.94367	7026
2.94433	7019
2.94500	7012
2.94567	7005
2.94633	6998
2.94700	6990
2.94767	6983
2.94833	6976
2.94900	6968
2.94967	6960
2.95033	6953
2.95100	6945
2.95167	6937
2.95233	6929
2.95300	6922
2.95367	6914
2.95433	6906
2.95500	6898
2.95567	6890
2.95633	6883
2.95700	6875
2.95767	6867
2.95833	6860
2.95900	6852
2.95967	6844
2.96033	6837
2.96100	6829
2.96167	6822
2.96233	6814
2.96300	6807
2.96367	6800
2.96433	6792
2.96500	6785
2.96567	6778
2.96633	6771
2.96700	6764
2.96767	6757
2.96833	6750
2.96900	6744
2.96967	6737
2.97033	6731
2.97100	6724
2.97167	6718
2.97233	6712
2.97300	6705
2.97367	6699
2.97433	6693
2.97500	6687
2.97567	6681
2.97633	6676
2.97700	6670
2.97767	6664
2.97833	6659
2.97900	6653
2.97967	6648
2.98033	6643
2.98100	6637
2.98167	6632
2.98233	6627
2.98300	6622
2.98367	6617
2.98433	6613
2.98500	6608
2.98567	6603
2.98633	6599
2.98700	6594
2.98767	6590
2.98833	6585
2.98900	6581
2.98967	6576
2.99033	6572
2.99100	6568
2.99167	6564
2.99233	6560
2.99300	6555
2.99367	6551
2.99433	6547
2.99500	6544
2.99567	6540
2.99633	6536
2.99700	6532
2.99767	6529
2.99833	6525
2.99900	6521
2.99967	6518
3.00033	6514
3.00100	6511
3.00167	6507
3.00233	6504
3.00300	6501
3.00367	6497
3.00433	6494
3.00500	6491
3.00567	6488
3.00633	6485
3.00700	6481
3.00767	6478
3.00833	6475
3.00900	6472
3.00967	6469
3.01033	6466
3.01100	6463
3.01167	6460
3.01233	6457
3.01300	6455
3.01367	6452
3.01433	6449
3.01500	6446
3.01567	6443
3.01633	6441
3.01700	6438
3.01767	6435
3.01833	6432
3.01900	6430
3.01967	6427
3.02033	6424
3.02100	6422
3.02167	6419
3.02233	6417
3.02300	6414
3.02367	6412
3.02433	6409
3.02500	6407
3.02567	6405
3.02633	6402
3.02700	6400
3.02767	6397
3.02833	6395
3.02900	6393
3.02967	6390
3.03033	6388
3.03100	6386
3.03167	6384
3.03233	6381
3.03300	6379
3.03367	6377
3.03433	6375
3.03500	6372
3.03567	6370
3.03633	6368
3.03700	6366
3.03767	6364
3.03833	6362
3.03900	6360
3.03967	6358
3.04033	6356
3.04100	6354
3.04167	6353
3.04233	6351
3.04300	6349
3.04367	6347
3.04433	6346
3.04500	6344
3.04567	6343
3.04633	6341
3.04700	6339
3.04767	6338
3.04833	6337
3.04900	6335
3.04967	6334
3.05033	6332
3.05100	6331
3.05167	6330
3.05233	6328
3.05300	6327
3.05367	6326
3.05433	6325
3.05500	6323
3.05567	6322
3.05633	6321
3.05700	6320
3.05767	6319
3.05833	6318
3.05900	6317
3.05967	6316
3.06033	6315
3.06100	6314
3.06167	6313
3.06233	6312
3.06300	6311
3.06367	6310
3.06433	6309
3.06500	6309
3.06567	6308
3.06633	6307
3.06700	6306
3.06767	6306
3.06833	6305
3.06900	6304
3.06967	6304
3.07033	6303
3.07100	6303
3.07167	6302
3.07233	6301
3.07300	6301
3.07367	6300
3.07433	6300
3.07500	6299
3.07567	6299
3.07633	6299
3.07700	6298
3.07767	6298
3.07833	6298
3.07900	6297
3.07967	6297
3.08033	6296
3.08100	6296
3.08167	6295
3.08233	6295
3.08300	6295
3.08367	6294
3.08433	6294
3.08500	6293
3.08567	6293
3.08633	6292
3.08700	6292
3.08767	6292
3.08833	6291
3.08900	6291
3.08967	6290
3.09033	6290
3.09100	6290
3.09167	6289
3.09233	6289
3.09300	6288
3.09367	6288
3.09433	6287
3.09500	6287
3.09567	6286
3.09633	6285
3.09700	6285
3.09767	6284
3.09833	6284
3.09900	6283
3.09967	6282
3.10033	6282
3.10100	6281
3.10167	6281
3.10233	6280
3.10300	6279
3.10367	6279
3.10433	6278
3.10500	6277
3.10567	6276
3.10633	6275
3.10700	6274
3.10767	6274
3.10833	6273
3.10900	6271
3.10967	6270
3.11033	6269
3.11100	6268
3.11167	6267
3.11233	6266
3.11300	6265
3.11367	6263
3.11433	6262
3.11500	6261
3.11567	6260
3.11633	6258
3.11700	6257
3.11767	6256
3.11833	6254
3.11900	6253
3.11967	6251
3.12033	6250
3.12100	6248
3.12167	6247
3.12233	6246
3.12300	6244
3.12367	6243
3.12433	6241
3.12500	6240
3.12567	6238
3.12633	6237
3.12700	6235
3.12767	6234
3.12833	6232
3.12900	6231
3.12967	6229
3.13033	6228
3.13100	6226
3.13167	6224
3.13233	6223
3.13300	6221
3.13367	6220
3.13433	6218
3.13500	6217
3.13567	6215
3.13633	6214
3.13700	6212
3.13767	6211
3.13833	6209
3.13900	6208
3.13967	6207
3.14033	6205
3.14100	6204
3.14167	6203
3.14233	6201
3.14300	6200
3.14367	6198
3.14433	6197
3.14500	6196
3.14567	6195
3.14633	6193
3.14700	6192
3.14767	6191
3.14833	6190
3.14900	6188
3.14967	6187
3.15033	6186
3.15100	6185
3.15167	6184
3.15233	6183
3.15300	6182
3.15367	6181
3.15433	6180
3.15500	6179
3.15567	6178
3.15633	6177
3.15700	6176
3.15767	6175
3.15833	6174
3.15900	6173
3.15967	6172
3.16033	6171
3.16100	6170
3.16167	6169
3.16233	6168
3.16300	6167
3.16367	6167
3.16433	6166
3.16500	6165
3.16567	6164
3.16633	6163
3.16700	6162
3.16767	6161
3.16833	6161
3.16900	6160
3.16967	6159
3.17033	6158
3.17100	6157
3.17167	6157
3.17233	6156
3.17300	6155
3.17367	6155
3.17433	6154
3.17500	6153
3.17567	6153
3.17633	6152
3.17700	6152
3.17767	6151
3.17833	6151
3.17900	6150
3.17967	6150
3.18033	6149
3.18100	6149
3.18167	6148
3.18233	6148
3.18300	6147
3.18367	6147
3.18433	6146
3.18500	6145
3.18567	6145
3.18633	6144
3.18700	6144
3.18767	6144
3.18833	6143
3.18900	6143
3.18967	6142
3.19033	6142
3.19100	6142
3.19167	6141
3.19233	6141
3.19300	6141
3.19367	6140
3.19433	6140
3.19500	6140
3.19567	6139
3.19633	6139
3.19700	6139
3.19767	6139
3.19833	6138
3.19900	6138
3.19967	6138
3.20033	6138
3.20100	6137
3.20167	6137
3.20233	6137
3.20300	6137
3.20367	6137
3.20433	6137
3.20500	6136
3.20567	6136
3.20633	6136
3.20700	6136
3.20767	6136
3.20833	6135
3.20900	6135
3.20967	6135
3.21033	6135
3.21100	6134
3.21167	6134
3.21233	6134
3.21300	6134
3.21367	6133
3.21433	6133
3.21500	6133
3.21567	6132
3.21633	6132
3.21700	6132
3.21767	6132
3.21833	6132
3.21900	6131
3.21967	6131
3.22033	6131
3.22100	6131
3.22167	6131
3.22233	6131
3.22300	6131
3.22367	6131
3.22433	6131
3.22500	6131
3.22567	6131
3.22633	6131
3.22700	6131
3.22767	6131
3.22833	6131
3.22900	6132
3.22967	6132
3.23033	6132
3.23100	6132
3.23167	6133
3.23233	6133
3.23300	6133
3.23367	6134
3.23433	6134
3.23500	6134
3.23567	6135
3.23633	6135
3.23700	6135
3.23767	6136
3.23833	6136
3.23900	6137
3.23967	6137
3.24033	6137
3.24100	6138
3.24167	6138
3.24233	6139
3.24300	6139
3.24367	6139
3.24433	6140
3.24500	6140
3.24567	6141
3.24633	6141
3.24700	6142
3.24767	6142
3.24833	6143
3.24900	6143
3.24967	6144
3.25033	6144
3.25100	6145
3.25167	6145
3.25233	6146
3.25300	6146
3.25367	6147
3.25433	6147
3.25500	6148
3.25567	6148
3.25633	6149
3.25700	6149
3.25767	6150
3.25833	6150
3.25900	6151
3.25967	6151
3.26033	6152
3.26100	6153
3.26167	6153
3.26233	6154
3.26300	6154
3.26367	6155
3.26433	6155
3.26500	6156
3.26567	6156
3.26633	6157
3.26700	6157
3.26767	6158
3.26833	6158
3.26900	6159
3.26967	6160
3.27033	6160
3.27100	6161
3.27167	6162
3.27233	6162
3.27300	6163
3.27367	6164
3.27433	6164
3.27500	6165
3.27567	6166
3.27633	6167
3.27700	6167
3.27767	6168
3.27833	6169
3.27900	6170
3.27967	6170
3.28033	6171
3.28100	6172
3.28167	6173
3.28233	6173
3.28300	6174
3.28367	6175
3.28433	6176
3.28500	6176
3.28567	6177
3.28633	6178
3.28700	6179
3.28767	6180
3.28833	6180
3.28900	6181
3.28967	6182
3.29033	6183
3.29100	6184
3.29167	6185
3.29233	6185
3.29300	6186
3.29367	6187
3.29433	6188
3.29500	6189
3.29567	6189
3.29633	6190
3.29700	6191
3.29767	6192
3.29833	6193
3.29900	6193
3.29967	6194
3.30033	6195
3.30100	6196
3.30167	6196
3.30233	6197
3.30300	6198
3.30367	6199
3.30433	6199
3.30500	6200
3.30567	6201
3.30633	6201
3.30700	6202
3.30767	6203
3.30833	6203
3.30900	6204
3.30967	6205
3.31033	6205
3.31100	6206
3.31167	6206
3.31233	6207
3.31300	6207
3.31367	6208
3.31433	6209
3.31500	6209
3.31567	6210
3.31633	6210
3.31700	6211
3.31767	6211
3.31833	6212
3.31900	6212
3.31967	6212
3.32033	6213
3.32100	6213
3.32167	6214
3.32233	6214
3.32300	6214
3.32367	6215
3.32433	6215
3.32500	6215
3.32567	6216
3.32633	6216
3.32700	6216
3.32767	6216
3.32833	6217
3.32900	6217
3.32967	6217
3.33033	6217
3.33100	6217
3.33167	6217
3.33233	6217
3.33300	6218
3.33367	6218
3.33433	6218
3.33500	6218
3.33567	6218
3.33633	6218
3.33700	6218
3.33767	6218
3.33833	6218
3.33900	6218
3.33967	6218
3.34033	6218
3.34100	6218
3.34167	6219
3.34233	6219
3.34300	6219
3.34367	6219
3.34433	6219
3.34500	6219
3.34567	6219
3.34633	6219
3.34700	6218
3.34767	6218
3.34833	6218
3.34900	6218
3.34967	6218
3.35033	6218
3.35100	6218
3.35167	6217
3.35233	6217
3.35300	6217
3.35367	6217
3.35433	6217
3.35500	6216
3.35567	6216
3.35633	6216
3.35700	6216
3.35767	6215
3.35833	6215
3.35900	6215
3.35967	6215
3.36033	6214
3.36100	6214
3.36167	6213
3.36233	6213
3.36300	6213
3.36367	6212
3.36433	6212
3.36500	6212
3.36567	6211
3.36633	6211
3.36700	6210
3.36767	6210
3.36833	6209
3.36900	6209
3.36967	6208
3.37033	6208
3.37100	6208
3.37167	6207
3.37233	6207
3.37300	6206
3.37367	6206
3.37433	6205
3.37500	6205
3.37567	6204
3.37633	6204
3.37700	6204
3.37767	6203
3.37833	6203
3.37900	6202
3.37967	6202
3.38033	6202
3.38100	6201
3.38167	6201
3.38233	6200
3.38300	6200
3.38367	6200
3.38433	6199
3.38500	6199
3.38567	6198
3.38633	6198
3.38700	6197
3.38767	6197
3.38833	6196
3.38900	6196
3.38967	6195
3.39033	6195
3.39100	6194
3.39167	6194
3.39233	6193
3.39300	6193
3.39367	6192
3.39433	6192
3.39500	6191
3.39567	6191
3.39633	6190
3.39700	6189
3.39767	6189
3.39833	6188
3.39900	6187
3.39967	6187
3.40033	6186
3.40100	6186
3.40167	6185
3.40233	6184
3.40300	6184
3.40367	6183
3.40433	6183
3.40500	6182
3.40567	6181
3.40633	6181
3.40700	6180
3.40767	6180
3.40833	6179
3.40900	6179
3.40967	6178
3.41033	6177
3.41100	6177
3.41167	6176
3.41233	6175
3.41300	6175
3.41367	6174
3.41433	6173
3.41500	6173
3.41567	6172
3.41633	6171
3.41700	6170
3.41767	6170
3.41833	6169
3.41900	6168
3.41967	6167
3.42033	6166
3.42100	6166
3.42167	6165
3.42233	6164
3.42300	6163
3.42367	6162
3.42433	6162
3.42500	6161
3.42567	6160
3.42633	6159
3.42700	6158
3.42767	6158
3.42833	6157
3.42900	6156
3.42967	6155
3.43033	6154
3.43100	6154
3.43167	6153
3.43233	6152
3.43300	6151
3.43367	6151
3.43433	6150
3.43500	6149
3.43567	6148
3.43633	6148
3.43700	6147
3.43767	6146
3.43833	6145
3.43900	6145
3.43967	6144
3.44033	6144
3.44100	6143
3.44167	6142
3.44233	6142
3.44300	6141
3.44367	6141
3.44433	6140
3.44500	6140
3.44567	6139
3.44633	6139
3.44700	6139
3.44767	6138
3.44833	6138
3.44900	6138
3.44967	6137
3.45033	6137
3.45100	6137
3.45167	6137
3.45233	6137
3.45300	6137
3.45367	6137
3.45433	6137
3.45500	6137
3.45567	6137
3.45633	6138
3.45700	6138
3.45767	6138
3.45833	6139
3.45900	6139
3.45967	6140
3.46033	6141
3.46100	6141
3.46167	6142
3.46233	6143
3.46300	6143
3.46367	6144
3.46433	6145
3.46500	6146
3.46567	6147
3.46633	6148
3.46700	6149
3.46767	6151
3.46833	6152
3.46900	6153
3.46967	6155
3.47033	6156
3.47100	6158
3.47167	6159
3.47233	6161
3.47300	6162
3.47367	6164
3.47433	6165
3.47500	6167
3.47567	6169
3.47633	6171
3.47700	6172
3.47767	6174
3.47833	6176
3.47900	6179
3.47967	6181
3.48033	6183
3.48100	6185
3.48167	6188
3.48233	6190
3.48300	6193
3.48367	6195
3.48433	6198
3.48500	6200
3.48567	6203
3.48633	6205
3.48700	6208
3.48767	6211
3.48833	6214
3.48900	6217
3.48967	6219
3.49033	6222
3.49100	6226
3.49167	6229
3.49233	6232
3.49300	6235
3.49367	6239
3.49433	6243
3.49500	6246
3.49567	6250
3.49633	6254
3.49700	6258
3.49767	6262
3.49833	6267
3.49900	6271
3.49967	6276
3.50033	6281
3.50100	6286
3.50167	6291
3.50233	6297
3.50300	6303
3.50367	6309
3.50433	6315
3.50500	6322
3.50567	6329
3.50633	6337
3.50700	6344
3.50767	6353
3.50833	6361
3.50900	6370
3.50967	6380
3.51033	6390
3.51100	6400
3.51167	6411
3.51233	6422
3.51300	6434
3.51367	6446
3.51433	6459
3.51500	6473
3.51567	6487
3.51633	6502
3.51700	6518
3.51767	6534
3.51833	6551
3.51900	6569
3.51967	6587
3.52033	6607
3.52100	6627
3.52167	6648
3.52233	6669
3.52300	6692
3.52367	6716
3.52433	6740
3.52500	6765
3.52567	6792
3.52633	6819
3.52700	6848
3.52767	6877
3.52833	6908
3.52900	6939
3.52967	6972
3.53033	7006
3.53100	7041
3.53167	7077
3.53233	7114
3.53300	7152
3.53367	7192
3.53433	7232
3.53500	7274
3.53567	7317
3.53633	7361
3.53700	7406
3.53767	7453
3.53833	7501
3.53900	7549
3.53967	7600
3.54033	7651
3.54100	7703
3.54167	7757
3.54233	7812
3.54300	7868
3.54367	7926
3.54433	7984
3.54500	8044
3.54567	8105
3.54633	8167
3.54700	8231
3.54767	8295
3.54833	8361
3.54900	8428
3.54967	8495
3.55033	8564
3.55100	8634
3.55167	8706
3.55233	8778
3.55300	8851
3.55367	8926
3.55433	9002
3.55500	9078
3.55567	9156
3.55633	9235
3.55700	9315
3.55767	9396
3.55833	9479
3.55900	9562
3.55967	9646
3.56033	9732
3.56100	9819
3.56167	9906
3.56233	9995
3.56300	10085
3.56367	10176
3.56433	10268
3.56500	10361
3.56567	10456
3.56633	10552
3.56700	10649
3.56767	10748
3.56833	10848
3.56900	10949
3.56967	11053
3.57033	11158
3.57100	11265
3.57167	11373
3.57233	11483
3.57300	11595
3.57367	11709
3.57433	11825
3.57500	11943
3.57567	12063
3.57633	12185
3.57700	12309
3.57767	12435
3.57833	12563
3.57900	12694
3.57967	12827
3.58033	12962
3.58100	13099
3.58167	13239
3.58233	13381
3.58300	13525
3.58367	13672
3.58433	13821
3.58500	13973
3.58567	14128
3.58633	14285
3.58700	14445
3.58767	14607
3.58833	14773
3.58900	14941
3.58967	15112
3.59033	15286
3.59100	15463
3.59167	15643
3.59233	15826
3.59300	16012
3.59367	16200
3.59433	16392
3.59500	16586
3.59567	16783
3.59633	16983
3.59700	17185
3.59767	17389
3.59833	17596
3.59900	17806
3.59967	18017
3.60033	18230
3.60100	18445
3.60167	18661
3.60233	18879
3.60300	19097
3.60367	19317
3.60433	19538
3.60500	19759
3.60567	19981
3.60633	20203
3.60700	20425
3.60767	20646
3.60833	20868
3.60900	21089
3.60967	21308
3.61033	21527
3.61100	21744
3.61167	21960
3.61233	22174
3.61300	22387
3.61367	22597
3.61433	22804
3.61500	23009
3.61567	23211
3.61633	23410
3.61700	23606
3.61767	23798
3.61833	23985
3.61900	24169
3.61967	24349
3.62033	24523
3.62100	24693
3.62167	24857
3.62233	25017
3.62300	25171
3.62367	25319
3.62433	25462
3.62500	25598
3.62567	25729
3.62633	25853
3.62700	25971
3.62767	26082
3.62833	26186
3.62900	26284
3.62967	26374
3.63033	26457
3.63100	26533
3.63167	26601
3.63233	26661
3.63300	26715
3.63367	26760
3.63433	26798
3.63500	26828
3.63567	26851
3.63633	26866
3.63700	26874
3.63767	26875
3.63833	26868
3.63900	26853
3.63967	26832
3.64033	26803
3.64100	26767
3.64167	26724
3.64233	26673
3.64300	26616
3.64367	26552
3.64433	26481
3.64500	26403
3.64567	26319
3.64633	26228
3.64700	26131
3.64767	26028
3.64833	25920
3.64900	25805
3.64967	25685
3.65033	25559
3.65100	25428
3.65167	25293
3.65233	25152
3.65300	25006
3.65367	24856
3.65433	24702
3.65500	24543
3.65567	24381
3.65633	24214
3.65700	24045
3.65767	23871
3.65833	23695
3.65900	23516
3.65967	23334
3.66033	23150
3.66100	22963
3.66167	22774
3.66233	22583
3.66300	22390
3.66367	22196
3.66433	22001
3.66500	21804
3.66567	21606
3.66633	21407
3.66700	21207
3.66767	21007
3.66833	20806
3.66900	20605
3.66967	20404
3.67033	20203
3.67100	20001
3.67167	19801
3.67233	19600
3.67300	19400
3.67367	19200
3.67433	19002
3.67500	18804
3.67567	18607
3.67633	18411
3.67700	18216
3.67767	18023
3.67833	17831
3.67900	17640
3.67967	17451
3.68033	17263
3.68100	17077
3.68167	16893
3.68233	16710
3.68300	16530
3.68367	16351
3.68433	16175
3.68500	16000
3.68567	15827
3.68633	15656
3.68700	15488
3.68767	15321
3.68833	15157
3.68900	14995
3.68967	14835
3.69033	14677
3.69100	14521
3.69167	14368
3.69233	14217
3.69300	14068
3.69367	13921
3.69433	13776
3.69500	13634
3.69567	13494
3.69633	13356
3.69700	13220
3.69767	13086
3.69833	12955
3.69900	12825
3.69967	12698
3.70033	12574
3.70100	12451
3.70167	12330
3.70233	12212
3.70300	12095
3.70367	11981
3.70433	11869
3.70500	11759
3.70567	11651
3.70633	11545
3.70700	11441
3.70767	11339
3.70833	11239
3.70900	11140
3.70967	11044
3.71033	10950
3.71100	10857
3.71167	10766
3.71233	10677
3.71300	10590
3.71367	10505
3.71433	10421
3.71500	10339
3.71567	10259
3.71633	10181
3.71700	10103
3.71767	10028
3.71833	9954
3.71900	9882
3.71967	9811
3.72033	9742
3.72100	9674
3.72167	9607
3.72233	9542
3.72300	9478
3.72367	9415
3.72433	9354
3.72500	9294
3.72567	9235
3.72633	9177
3.72700	9121
3.72767	9066
3.72833	9012
3.72900	8959
3.72967	8907
3.73033	8857
3.73100	8807
3.73167	8759
3.73233	8711
3.73300	8665
3.73367	8620
3.73433	8575
3.73500	8532
3.73567	8490
3.73633	8448
3.73700	8407
3.73767	8368
3.73833	8329
3.73900	8291
3.73967	8253
3.74033	8217
3.74100	8181
3.74167	8146
3.74233	8112
3.74300	8078
3.74367	8046
3.74433	8013
3.74500	7982
3.74567	7951
3.74633	7921
3.74700	7891
3.74767	7862
3.74833	7833
3.74900	7805
3.74967	7778
3.75033	7751
3.75100	7725
3.75167	7699
3.75233	7674
3.75300	7649
3.75367	7625
3.75433	7601
3.75500	7577
3.75567	7554
3.75633	7532
3.75700	7510
3.75767	7488
3.75833	7467
3.75900	7446
3.75967	7425
3.76033	7405
3.76100	7385
3.76167	7366
3.76233	7347
3.76300	7328
3.76367	7310
3.76433	7292
3.76500	7274
3.76567	7257
3.76633	7240
3.76700	7223
3.76767	7206
3.76833	7190
3.76900	7174
3.76967	7158
3.77033	7143
3.77100	7128
3.77167	7113
3.77233	7099
3.77300	7084
3.77367	7070
3.77433	7056
3.77500	7042
3.77567	7029
3.77633	7015
3.77700	7002
3.77767	6989
3.77833	6977
3.77900	6964
3.77967	6952
3.78033	6940
3.78100	6928
3.78167	6916
3.78233	6904
3.78300	6893
3.78367	6881
3.78433	6870
3.78500	6859
3.78567	6848
3.78633	6838
3.78700	6827
3.78767	6817
3.78833	6806
3.78900	6796
3.78967	6787
3.79033	6777
3.79100	6767
3.79167	6758
3.79233	6748
3.79300	6739
3.79367	6730
3.79433	6721
3.79500	6712
3.79567	6703
3.79633	6695
3.79700	6686
3.79767	6678
3.79833	6669
3.79900	6661
3.79967	6653
3.80033	6645
3.80100	6637
3.80167	6629
3.80233	6621
3.80300	6614
3.80367	6606
3.80433	6599
3.80500	6591
3.80567	6584
3.80633	6577
3.80700	6570
3.80767	6562
3.80833	6555
3.80900	6549
3.80967	6542
3.81033	6535
3.81100	6528
3.81167	6521
3.81233	6515
3.81300	6508
3.81367	6502
3.81433	6495
3.81500	6489
3.81567	6483
3.81633	6477
3.81700	6471
3.81767	6465
3.81833	6459
3.81900	6453
3.81967	6447
3.82033	6442
3.82100	6436
3.82167	6431
3.82233	6425
3.82300	6420
3.82367	6415
3.82433	6409
3.82500	6404
3.82567	6399
3.82633	6393
3.82700	6388
3.82767	6383
3.82833	6378
3.82900	6373
3.82967	6368
3.83033	6363
3.83100	6358
3.83167	6353
3.83233	6348
3.83300	6343
3.83367	6338
3.83433	6333
3.83500	6328
3.83567	6324
3.83633	6319
3.83700	6315
3.83767	6310
3.83833	6306
3.83900	6301
3.83967	6297
3.84033	6292
3.84100	6288
3.84167	6284
3.84233	6279
3.84300	6275
3.84367	6271
3.84433	6266
3.84500	6262
3.84567	6258
3.84633	6253
3.84700	6249
3.84767	6245
3.84833	6241
3.84900	6237
3.84967	6232
3.85033	6228
3.85100	6224
3.85167	6220
3.85233	6216
3.85300	6212
3.85367	6208
3.85433	6204
3.85500	6201
3.85567	6197
3.85633	6193
3.85700	6189
3.85767	6185
3.85833	6181
3.85900	6178
3.85967	6174
3.86033	6170
3.86100	6166
3.86167	6163
3.86233	6159
3.86300	6155
3.86367	6152
3.86433	6148
3.86500	6145
3.86567	6141
3.86633	6138
3.86700	6134
3.86767	6131
3.86833	6128
3.86900	6124
3.86967	6121
3.87033	6118
3.87100	6114
3.87167	6111
3.87233	6108
3.87300	6104
3.87367	6101
3.87433	6098
3.87500	6095
3.87567	6092
3.87633	6088
3.87700	6085
3.87767	6082
3.87833	6079
3.87900	6076
3.87967	6073
3.88033	6070
3.88100	6067
3.88167	6064
3.88233	6061
3.88300	6059
3.88367	6056
3.88433	6053
3.88500	6050
3.88567	6047
3.88633	6045
3.88700	6042
3.88767	6039
3.88833	6037
3.88900	6034
3.88967	6031
3.89033	6029
3.89100	6026
3.89167	6023
3.89233	6021
3.89300	6018
3.89367	6016
3.89433	6013
3.89500	6010
3.89567	6008
3.89633	6005
3.89700	6003
3.89767	6000
3.89833	5997
3.89900	5995
3.89967	5992
3.90033	5990
3.90100	5987
3.90167	5985
3.90233	5982
3.90300	5980
3.90367	5977
3.90433	5974
3.90500	5972
3.90567	5969
3.90633	5967
3.90700	5964
3.90767	5962
3.90833	5959
3.90900	5957
3.90967	5954
3.91033	5952
3.91100	5949
3.91167	5946
3.91233	5944
3.91300	5941
3.91367	5939
3.91433	5936
3.91500	5934
3.91567	5931
3.91633	5929
3.91700	5926
3.91767	5924
3.91833	5921
3.91900	5919
3.91967	5917
3.92033	5914
3.92100	5912
3.92167	5909
3.92233	5907
3.92300	5904
3.92367	5902
3.92433	5900
3.92500	5898
3.92567	5895
3.92633	5893
3.92700	5891
3.92767	5888
3.92833	5886
3.92900	5884
3.92967	5882
3.93033	5879
3.93100	5877
3.93167	5875
3.93233	5873
3.93300	5871
3.93367	5869
3.93433	5867
3.93500	5865
3.93567	5863
3.93633	5861
3.93700	5858
3.93767	5856
3.93833	5854
3.93900	5852
3.93967	5850
3.94033	5848
3.94100	5847
3.94167	5845
3.94233	5843
3.94300	5841
3.94367	5839
3.94433	5838
3.94500	5836
3.94567	5834
3.94633	5832
3.94700	5831
3.94767	5829
3.94833	5827
3.94900	5826
3.94967	5824
3.95033	5822
3.95100	5821
3.95167	5819
3.95233	5818
3.95300	5816
3.95367	5815
3.95433	5813
3.95500	5812
3.95567	5810
3.95633	5809
3.95700	5807
3.95767	5806
3.95833	5804
3.95900	5803
3.95967	5801
3.96033	5800
3.96100	5798
3.96167	5797
3.96233	5796
3.96300	5794
3.96367	5793
3.96433	5792
3.96500	5791
3.96567	5789
3.96633	5788
3.96700	5787
3.96767	5786
3.96833	5785
3.96900	5783
3.96967	5782
3.97033	5781
3.97100	5780
3.97167	5779
3.97233	5778
3.97300	5777
3.97367	5775
3.97433	5774
3.97500	5773
3.97567	5772
3.97633	5771
3.97700	5770
3.97767	5769
3.97833	5768
3.97900	5767
3.97967	5766
3.98033	5765
3.98100	5764
3.98167	5763
3.98233	5762
3.98300	5761
3.98367	5760
3.98433	5759
3.98500	5758
3.98567	5757
3.98633	5756
3.98700	5755
3.98767	5754
3.98833	5753
3.98900	5752
3.98967	5752
3.99033	5751
3.99100	5750
3.99167	5749
3.99233	5748
3.99300	5747
3.99367	5746
3.99433	5746
3.99500	5745
3.99567	5744
3.99633	5743
3.99700	5742
3.99767	5742
3.99833	5741
3.99900	5740
3.99967	5739
4.00033	5739
4.00100	5738
4.00167	5737
4.00233	5737
4.00300	5736
4.00367	5736
4.00433	5735
4.00500	5734
4.00567	5734
4.00633	5733
4.00700	5733
4.00767	5732
4.00833	5732
4.00900	5731
4.00967	5731
4.01033	5730
4.01100	5730
4.01167	5730
4.01233	5729
4.01300	5729
4.01367	5728
4.01433	5728
4.01500	5727
4.01567	5727
4.01633	5727
4.01700	5726
4.01767	5726
4.01833	5726
4.01900	5725
4.01967	5725
4.02033	5725
4.02100	5725
4.02167	5724
4.02233	5724
4.02300	5724
4.02367	5724
4.02433	5723
4.02500	5723
4.02567	5723
4.02633	5723
4.02700	5723
4.02767	5723
4.02833	5723
4.02900	5723
4.02967	5723
4.03033	5724
4.03100	5724
4.03167	5724
4.03233	5724
4.03300	5724
4.03367	5724
4.03433	5724
4.03500	5724
4.03567	5724
4.03633	5724
4.03700	5724
4.03767	5724
4.03833	5724
4.03900	5724
4.03967	5725
4.04033	5725
4.04100	5725
4.04167	5725
4.04233	5725
4.04300	5725
4.04367	5725
4.04433	5726
4.04500	5726
4.04567	5726
4.04633	5726
4.04700	5726
4.04767	5726
4.04833	5726
4.04900	5726
4.04967	5726
4.05033	5726
4.05100	5726
4.05167	5727
4.05233	5727
4.05300	5727
4.05367	5727
4.05433	5728
4.05500	5728
4.05567	5728
4.05633	5729
4.05700	5729
4.05767	5730
4.05833	5730
4.05900	5731
4.05967	5731
4.06033	5732
4.06100	5732
4.06167	5733
4.06233	5734
4.06300	5734
4.06367	5735
4.06433	5736
4.06500	5737
4.06567	5738
4.06633	5739
4.06700	5741
4.06767	5742
4.06833	5743
4.06900	5745
4.06967	5746
4.07033	5748
4.07100	5750
4.07167	5752
4.07233	5753
4.07300	5755
4.07367	5757
4.07433	5759
4.07500	5762
4.07567	5764
4.07633	5766
4.07700	5768
4.07767	5771
4.07833	5773
4.07900	5776
4.07967	5778
4.08033	5781
4.08100	5784
4.08167	5787
4.08233	5790
4.08300	5793
4.08367	5797
4.08433	5800
4.08500	5804
4.08567	5807
4.08633	5811
4.08700	5815
4.08767	5819
4.08833	5823
4.08900	5827
4.08967	5831
4.09033	5835
4.09100	5840
4.09167	5845
4.09233	5849
4.09300	5854
4.09367	5859
4.09433	5864
4.09500	5869
4.09567	5875
4.09633	5880
4.09700	5886
4.09767	5892
4.09833	5897
4.09900	5903
4.09967	5910
4.10033	5916
4.10100	5922
4.10167	5929
4.10233	5935
4.10300	5942
4.10367	5948
4.10433	5955
4.10500	5962
4.10567	5969
4.10633	5976
4.10700	5983
4.10767	5991
4.10833	5998
4.10900	6005
4.10967	6013
4.11033	6020
4.11100	6028
4.11167	6035
4.11233	6043
4.11300	6051
4.11367	6058
4.11433	6066
4.11500	6074
4.11567	6082
4.11633	6090
4.11700	6098
4.11767	6106
4.11833	6115
4.11900	6123
4.11967	6131
4.12033	6139
4.12100	6147
4.12167	6156
4.12233	6164
4.12300	6172
4.12367	6180
4.12433	6189
4.12500	6197
4.12567	6205
4.12633	6213
4.12700	6221
4.12767	6229
4.12833	6238
4.12900	6246
4.12967	6254
4.13033	6262
4.13100	6270
4.13167	6278
4.13233	6286
4.13300	6294
4.13367	6301
4.13433	6309
4.13500	6317
4.13567	6325
4.13633	6332
4.13700	6340
4.13767	6347
4.13833	6354
4.13900	6361
4.13967	6369
4.14033	6376
4.14100	6383
4.14167	6390
4.14233	6397
4.14300	6403
4.14367	6410
4.14433	6417
4.14500	6424
4.14567	6430
4.14633	6437
4.14700	6443
4.14767	6450
4.14833	6456
4.14900	6463
4.14967	6469
4.15033	6475
4.15100	6482
4.15167	6488
4.15233	6494
4.15300	6500
4.15367	6506
4.15433	6513
4.15500	6519
4.15567	6525
4.15633	6531
4.15700	6537
4.15767	6543
4.15833	6549
4.15900	6555
4.15967	6561
4.16033	6567
4.16100	6573
4.16167	6579
4.16233	6585
4.16300	6591
4.16367	6597
4.16433	6603
4.16500	6610
4.16567	6616
4.16633	6622
4.16700	6629
4.16767	6636
4.16833	6642
4.16900	6649
4.16967	6656
4.17033	6663
4.17100	6671
4.17167	6678
4.17233	6686
4.17300	6694
4.17367	6702
4.17433	6710
4.17500	6719
4.17567	6728
4.17633	6737
4.17700	6746
4.17767	6756
4.17833	6766
4.17900	6776
4.17967	6787
4.18033	6798
4.18100	6809
4.18167	6821
4.18233	6833
4.18300	6846
4.18367	6859
4.18433	6873
4.18500	6887
4.18567	6902
4.18633	6917
4.18700	6933
4.18767	6950
4.18833	6967
4.18900	6985
4.18967	7004
4.19033	7023
4.19100	7044
4.19167	7065
4.19233	7087
4.19300	7110
4.19367	7134
4.19433	7160
4.19500	7186
4.19567	7213
4.19633	7242
4.19700	7272
4.19767	7303
4.19833	7336
4.19900	7370
4.19967	7406
4.20033	7443
4.20100	7482
4.20167	7522
4.20233	7565
4.20300	7610
4.20367	7656
4.20433	7705
4.20500	7756
4.20567	7809
4.20633	7865
4.20700	7923
4.20767	7984
4.20833	8047
4.20900	8113
4.20967	8183
4.21033	8255
4.21100	8330
4.21167	8408
4.21233	8490
4.21300	8575
4.21367	8664
4.21433	8756
4.21500	8853
4.21567	8953
4.21633	9057
4.21700	9165
4.21767	9278
4.21833	9394
4.21900	9516
4.21967	9642
4.22033	9772
4.22100	9908
4.22167	10048
4.22233	10194
4.22300	10346
4.22367	10503
4.22433	10665
4.22500	10834
4.22567	11008
4.22633	11189
4.22700	11376
4.22767	11570
4.22833	11770
4.22900	11977
4.22967	12190
4.23033	12411
4.23100	12639
4.23167	12874
4.23233	13117
4.23300	13368
4.23367	13627
4.23433	13893
4.23500	14168
4.23567	14452
4.23633	14744
4.23700	15044
4.23767	15354
4.23833	15673
4.23900	16002
4.23967	16339
4.24033	16687
4.24100	17044
4.24167	17410
4.24233	17787
4.24300	18174
4.24367	18571
4.24433	18978
4.24500	19396
4.24567	19824
4.24633	20262
4.24700	20711
4.24767	21169
4.24833	21638
4.24900	22118
4.24967	22607
4.25033	23107
4.25100	23617
4.25167	24137
4.25233	24668
4.25300	25208
4.25367	25758
4.25433	26319
4.25500	26889
4.25567	27469
4.25633	28059
4.25700	28659
4.25767	29268
4.25833	29887
4.25900	30515
4.25967	31153
4.26033	31800
4.26100	32456
4.26167	33121
4.26233	33794
4.26300	34476
4.26367	35167
4.26433	35865
4.26500	36572
4.26567	37287
4.26633	38011
4.26700	38742
4.26767	39482
4.26833	40229
4.26900	40984
4.26967	41747
4.27033	42516
4.27100	43293
4.27167	44076
4.27233	44865
4.27300	45660
4.27367	46461
4.27433	47267
4.27500	48078
4.27567	48894
4.27633	49713
4.27700	50536
4.27767	51362
4.27833	52192
4.27900	53024
4.27967	53858
4.28033	54693
4.28100	55531
4.28167	56369
4.28233	57208
4.28300	58046
4.28367	58885
4.28433	59724
4.28500	60561
4.28567	61397
4.28633	62231
4.28700	63064
4.28767	63894
4.28833	64722
4.28900	65547
4.28967	66369
4.29033	67188
4.29100	68004
4.29167	68815
4.29233	69623
4.29300	70425
4.29367	71223
4.29433	72015
4.29500	72801
4.29567	73581
4.29633	74355
4.29700	75121
4.29767	75880
4.29833	76630
4.29900	77372
4.29967	78106
4.30033	78829
4.30100	79542
4.30167	80245
4.30233	80937
4.30300	81617
4.30367	82286
4.30433	82943
4.30500	83589
4.30567	84222
4.30633	84843
4.30700	85451
4.30767	86047
4.30833	86630
4.30900	87199
4.30967	87755
4.31033	88298
4.31100	88827
4.31167	89342
4.31233	89844
4.31300	90331
4.31367	90804
4.31433	91263
4.31500	91708
4.31567	92139
4.31633	92556
4.31700	92958
4.31767	93346
4.31833	93719
4.31900	94078
4.31967	94422
4.32033	94750
4.32100	95063
4.32167	95361
4.32233	95644
4.32300	95910
4.32367	96162
4.32433	96398
4.32500	96618
4.32567	96823
4.32633	97013
4.32700	97188
4.32767	97348
4.32833	97492
4.32900	97621
4.32967	97735
4.33033	97833
4.33100	97917
4.33167	97984
4.33233	98037
4.33300	98074
4.33367	98095
4.33433	98102
4.33500	98094
4.33567	98071
4.33633	98035
4.33700	97984
4.33767	97919
4.33833	97841
4.33900	97749
4.33967	97643
4.34033	97523
4.34100	97389
4.34167	97242
4.34233	97080
4.34300	96905
4.34367	96715
4.34433	96512
4.34500	96296
4.34567	96067
4.34633	95824
4.34700	95569
4.34767	95302
4.34833	95023
4.34900	94732
4.34967	94430
4.35033	94117
4.35100	93792
4.35167	93458
4.35233	93112
4.35300	92757
4.35367	92392
4.35433	92017
4.35500	91633
4.35567	91240
4.35633	90838
4.35700	90428
4.35767	90010
4.35833	89583
4.35900	89149
4.35967	88707
4.36033	88258
4.36100	87801
4.36167	87338
4.36233	86868
4.36300	86391
4.36367	85908
4.36433	85419
4.36500	84924
4.36567	84423
4.36633	83917
4.36700	83406
4.36767	82889
4.36833	82367
4.36900	81841
4.36967	81310
4.37033	80775
4.37100	80236
4.37167	79693
4.37233	79146
4.37300	78595
4.37367	78041
4.37433	77484
4.37500	76924
4.37567	76362
4.37633	75797
4.37700	75229
4.37767	74660
4.37833	74089
4.37900	73516
4.37967	72942
4.38033	72366
4.38100	71790
4.38167	71212
4.38233	70634
4.38300	70055
4.38367	69476
4.38433	68897
4.38500	68318
4.38567	67739
4.38633	67160
4.38700	66583
4.38767	66005
4.38833	65429
4.38900	64854
4.38967	64280
4.39033	63707
4.39100	63136
4.39167	62567
4.39233	62000
4.39300	61434
4.39367	60871
4.39433	60311
4.39500	59753
4.39567	59198
4.39633	58645
4.39700	58095
4.39767	57549
4.39833	57005
4.39900	56465
4.39967	55929
4.40033	55395
4.40100	54866
4.40167	54340
4.40233	53818
4.40300	53300
4.40367	52786
4.40433	52276
4.40500	51771
4.40567	51270
4.40633	50773
4.40700	50281
4.40767	49793
4.40833	49310
4.40900	48832
4.40967	48358
4.41033	47889
4.41100	47424
4.41167	46964
4.41233	46509
4.41300	46059
4.41367	45614
4.41433	45173
4.41500	44737
4.41567	44307
4.41633	43881
4.41700	43460
4.41767	43044
4.41833	42634
4.41900	42228
4.41967	41827
4.42033	41432
4.42100	41042
4.42167	40656
4.42233	40276
4.42300	39901
4.42367	39531
4.42433	39165
4.42500	38805
4.42567	38450
4.42633	38099
4.42700	37754
4.42767	37413
4.42833	37077
4.42900	36745
4.42967	36419
4.43033	36096
4.43100	35779
4.43167	35466
4.43233	35157
4.43300	34853
4.43367	34554
4.43433	34259
4.43500	33968
4.43567	33682
4.43633	33400
4.43700	33123
4.43767	32850
4.43833	32581
4.43900	32317
4.43967	32056
4.44033	31801
4.44100	31549
4.44167	31301
4.44233	31058
4.44300	30819
4.44367	30584
4.44433	30352
4.44500	30125
4.44567	29902
4.44633	29682
4.44700	29467
4.44767	29255
4.44833	29047
4.44900	28842
4.44967	28641
4.45033	28444
4.45100	28250
4.45167	28060
4.45233	27873
4.45300	27690
4.45367	27510
4.45433	27333
4.45500	27160
4.45567	26990
4.45633	26824
4.45700	26660
4.45767	26500
4.45833	26343
4.45900	26189
4.45967	26038
4.46033	25891
4.46100	25746
4.46167	25604
4.46233	25465
4.46300	25330
4.46367	25197
4.46433	25067
4.46500	24940
4.46567	24816
4.46633	24694
4.46700	24575
4.46767	24459
4.46833	24346
4.46900	24235
4.46967	24127
4.47033	24021
4.47100	23918
4.47167	23817
4.47233	23719
4.47300	23623
4.47367	23529
4.47433	23438
4.47500	23349
4.47567	23262
4.47633	23178
4.47700	23096
4.47767	23016
4.47833	22939
4.47900	22864
4.47967	22790
4.48033	22719
4.48100	22650
4.48167	22583
4.48233	22518
4.48300	22455
4.48367	22394
4.48433	22335
4.48500	22278
4.48567	22222
4.48633	22168
4.48700	22116
4.48767	22065
4.48833	22016
4.48900	21969
4.48967	21923
4.49033	21879
4.49100	21836
4.49167	21795
4.49233	21755
4.49300	21716
4.49367	21679
4.49433	21643
4.49500	21608
4.49567	21575
4.49633	21542
4.49700	21511
4.49767	21480
4.49833	21451
4.49900	21423
4.49967	21395
4.50033	21369
4.50100	21343
4.50167	21319
4.50233	21295
4.50300	21272
4.50367	21250
4.50433	21229
4.50500	21208
4.50567	21188
4.50633	21168
4.50700	21149
4.50767	21130
4.50833	21111
4.50900	21093
4.50967	21075
4.51033	21058
4.51100	21040
4.51167	21023
4.51233	21007
4.51300	20990
4.51367	20974
4.51433	20959
4.51500	20943
4.51567	20928
4.51633	20913
4.51700	20898
4.51767	20883
4.51833	20868
4.51900	20854
4.51967	20840
4.52033	20826
4.52100	20812
4.52167	20798
4.52233	20784
4.52300	20770
4.52367	20756
4.52433	20743
4.52500	20729
4.52567	20716
4.52633	20703
4.52700	20690
4.52767	20677
4.52833	20664
4.52900	20651
4.52967	20639
4.53033	20626
4.53100	20614
4.53167	20602
4.53233	20591
4.53300	20579
4.53367	20568
4.53433	20557
4.53500	20546
4.53567	20536
4.53633	20525
4.53700	20515
4.53767	20504
4.53833	20494
4.53900	20485
4.53967	20475
4.54033	20465
4.54100	20456
4.54167	20447
4.54233	20438
4.54300	20430
4.54367	20421
4.54433	20413
4.54500	20405
4.54567	20398
4.54633	20390
4.54700	20383
4.54767	20376
4.54833	20370
4.54900	20364
4.54967	20358
4.55033	20353
4.55100	20349
4.55167	20344
4.55233	20340
4.55300	20337
4.55367	20334
4.55433	20332
4.55500	20331
4.55567	20330
4.55633	20329
4.55700	20330
4.55767	20331
4.55833	20332
4.55900	20335
4.55967	20338
4.56033	20342
4.56100	20346
4.56167	20351
4.56233	20356
4.56300	20363
4.56367	20369
4.56433	20376
4.56500	20384
4.56567	20392
4.56633	20401
4.56700	20410
4.56767	20420
4.56833	20430
4.56900	20440
4.56967	20450
4.57033	20461
4.57100	20473
4.57167	20484
4.57233	20496
4.57300	20509
4.57367	20521
4.57433	20534
4.57500	20547
4.57567	20560
4.57633	20573
4.57700	20587
4.57767	20600
4.57833	20614
4.57900	20628
4.57967	20642
4.58033	20656
4.58100	20670
4.58167	20684
4.58233	20698
4.58300	20712
4.58367	20726
4.58433	20740
4.58500	20754
4.58567	20768
4.58633	20782
4.58700	20796
4.58767	20809
4.58833	20823
4.58900	20836
4.58967	20849
4.59033	20862
4.59100	20875
4.59167	20887
4.59233	20898
4.59300	20910
4.59367	20921
4.59433	20931
4.59500	20941
4.59567	20951
4.59633	20960
4.59700	20968
4.59767	20976
4.59833	20983
4.59900	20990
4.59967	20996
4.60033	21002
4.60100	21006
4.60167	21010
4.60233	21013
4.60300	21015
4.60367	21016
4.60433	21017
4.60500	21016
4.60567	21014
4.60633	21012
4.60700	21008
4.60767	21004
4.60833	20998
4.60900	20991
4.60967	20983
4.61033	20975
4.61100	20965
4.61167	20954
4.61233	20942
4.61300	20929
4.61367	20915
4.61433	20900
4.61500	20884
4.61567	20867
4.61633	20849
4.61700	20830
4.61767	20810
4.61833	20789
4.61900	20766
4.61967	20743
4.62033	20719
4.62100	20694
4.62167	20668
4.62233	20641
4.62300	20613
4.62367	20584
4.62433	20555
4.62500	20524
4.62567	20493
4.62633	20461
4.62700	20428
4.62767	20394
4.62833	20360
4.62900	20325
4.62967	20289
4.63033	20252
4.63100	20215
4.63167	20176
4.63233	20137
4.63300	20097
4.63367	20057
4.63433	20015
4.63500	19973
4.63567	19931
4.63633	19887
4.63700	19843
4.63767	19798
4.63833	19753
4.63900	19707
4.63967	19661
4.64033	19614
4.64100	19567
4.64167	19519
4.64233	19470
4.64300	19422
4.64367	19373
4.64433	19323
4.64500	19273
4.64567	19223
4.64633	19172
4.64700	19121
4.64767	19070
4.64833	19018
4.64900	18966
4.64967	18914
4.65033	18862
4.65100	18809
4.65167	18756
4.65233	18702
4.65300	18649
4.65367	18595
4.65433	18541
4.65500	18487
4.65567	18433
4.65633	18379
4.65700	18325
4.65767	18271
4.65833	18217
4.65900	18163
4.65967	18109
4.66033	18055
4.66100	18001
4.66167	17947
4.66233	17893
4.66300	17840
4.66367	17787
4.66433	17734
4.66500	17681
4.66567	17628
4.66633	17575
4.66700	17523
4.66767	17471
4.66833	17419
4.66900	17368
4.66967	17317
4.67033	17266
4.67100	17215
4.67167	17165
4.67233	17115
4.67300	17065
4.67367	17015
4.67433	16966
4.67500	16917
4.67567	16869
4.67633	16820
4.67700	16772
4.67767	16725
4.67833	16677
4.67900	16631
4.67967	16584
4.68033	16538
4.68100	16492
4.68167	16447
4.68233	16402
4.68300	16357
4.68367	16312
4.68433	16268
4.68500	16224
4.68567	16180
4.68633	16137
4.68700	16094
4.68767	16051
4.68833	16008
4.68900	15966
4.68967	15924
4.69033	15882
4.69100	15841
4.69167	15800
4.69233	15759
4.69300	15718
4.69367	15678
4.69433	15638
4.69500	15598
4.69567	15559
4.69633	15520
4.69700	15482
4.69767	15443
4.69833	15405
4.69900	15367
4.69967	15330
4.70033	15293
4.70100	15256
4.70167	15219
4.70233	15183
4.70300	15147
4.70367	15112
4.70433	15077
4.70500	15042
4.70567	15008
4.70633	14974
4.70700	14940
4.70767	14907
4.70833	14874
4.70900	14842
4.70967	14810
4.71033	14778
4.71100	14747
4.71167	14716
4.71233	14685
4.71300	14655
4.71367	14625
4.71433	14595
4.71500	14566
4.71567	14537
4.71633	14509
4.71700	14480
4.71767	14452
4.71833	14425
4.71900	14397
4.71967	14370
4.72033	14343
4.72100	14316
4.72167	14290
4.72233	14264
4.72300	14238
4.72367	14212
4.72433	14187
4.72500	14161
4.72567	14136
4.72633	14112
4.72700	14087
4.72767	14063
4.72833	14039
4.72900	14016
4.72967	13992
4.73033	13969
4.73100	13947
4.73167	13924
4.73233	13902
4.73300	13880
4.73367	13858
4.73433	13836
4.73500	13815
4.73567	13793
4.73633	13772
4.73700	13751
4.73767	13731
4.73833	13710
4.73900	13690
4.73967	13670
4.74033	13650
4.74100	13630
4.74167	13611
4.74233	13592
4.74300	13572
4.74367	13553
4.74433	13534
4.74500	13516
4.74567	13497
4.74633	13478
4.74700	13460
4.74767	13442
4.74833	13423
4.74900	13405
4.74967	13388
4.75033	13370
4.75100	13352
4.75167	13335
4.75233	13317
4.75300	13300
4.75367	13283
4.75433	13266
4.75500	13249
4.75567	13232
4.75633	13215
4.75700	13198
4.75767	13181
4.75833	13165
4.75900	13148
4.75967	13132
4.76033	13116
4.76100	13100
4.76167	13084
4.76233	13068
4.76300	13052
4.76367	13037
4.76433	13021
4.76500	13006
4.76567	12990
4.76633	12975
4.76700	12960
4.76767	12945
4.76833	12930
4.76900	12915
4.76967	12900
4.77033	12885
4.77100	12871
4.77167	12856
4.77233	12842
4.77300	12828
4.77367	12814
4.77433	12800
4.77500	12787
4.77567	12773
4.77633	12760
4.77700	12746
4.77767	12733
4.77833	12720
4.77900	12707
4.77967	12695
4.78033	12682
4.78100	12670
4.78167	12657
4.78233	12645
4.78300	12633
4.78367	12621
4.78433	12609
4.78500	12597
4.78567	12586
4.78633	12574
4.78700	12562
4.78767	12551
4.78833	12539
4.78900	12528
4.78967	12516
4.79033	12505
4.79100	12494
4.79167	12482
4.79233	12471
4.79300	12460
4.79367	12450
4.79433	12439
4.79500	12428
4.79567	12418
4.79633	12407
4.79700	12397
4.79767	12387
4.79833	12376
4.79900	12366
4.79967	12356
4.80033	12346
4.80100	12336
4.80167	12327
4.80233	12317
4.80300	12307
4.80367	12298
4.80433	12288
4.80500	12279
4.80567	12270
4.80633	12261
4.80700	12252
4.80767	12243
4.80833	12234
4.80900	12225
4.80967	12217
4.81033	12208
4.81100	12200
4.81167	12192
4.81233	12183
4.81300	12175
4.81367	12167
4.81433	12159
4.81500	12151
4.81567	12143
4.81633	12135
4.81700	12127
4.81767	12119
4.81833	12111
4.81900	12103
4.81967	12095
4.82033	12087
4.82100	12079
4.82167	12071
4.82233	12063
4.82300	12055
4.82367	12048
4.82433	12040
4.82500	12032
4.82567	12024
4.82633	12016
4.82700	12008
4.82767	12000
4.82833	11992
4.82900	11985
4.82967	11977
4.83033	11969
4.83100	11961
4.83167	11953
4.83233	11946
4.83300	11938
4.83367	11930
4.83433	11922
4.83500	11914
4.83567	11906
4.83633	11898
4.83700	11890
4.83767	11882
4.83833	11873
4.83900	11865
4.83967	11857
4.84033	11849
4.84100	11840
4.84167	11832
4.84233	11824
4.84300	11815
4.84367	11807
4.84433	11798
4.84500	11790
4.84567	11781
4.84633	11773
4.84700	11764
4.84767	11755
4.84833	11747
4.84900	11738
4.84967	11730
4.85033	11721
4.85100	11713
4.85167	11704
4.85233	11696
4.85300	11687
4.85367	11678
4.85433	11670
4.85500	11661
4.85567	11653
4.85633	11644
4.85700	11635
4.85767	11627
4.85833	11618
4.85900	11610
4.85967	11601
4.86033	11593
4.86100	11584
4.86167	11576
4.86233	11568
4.86300	11559
4.86367	11551
4.86433	11543
4.86500	11534
4.86567	11526
4.86633	11518
4.86700	11509
4.86767	11501
4.86833	11493
4.86900	11484
4.86967	11476
4.87033	11468
4.87100	11460
4.87167	11452
4.87233	11444
4.87300	11436
4.87367	11428
4.87433	11420
4.87500	11412
4.87567	11404
4.87633	11396
4.87700	11388
4.87767	11381
4.87833	11373
4.87900	11365
4.87967	11357
4.88033	11349
4.88100	11341
4.88167	11334
4.88233	11326
4.88300	11318
4.88367	11310
4.88433	11302
4.88500	11294
4.88567	11287
4.88633	11279
4.88700	11271
4.88767	11264
4.88833	11256
4.88900	11248
4.88967	11241
4.89033	11233
4.89100	11226
4.89167	11219
4.89233	11211
4.89300	11204
4.89367	11197
4.89433	11190
4.89500	11183
4.89567	11176
4.89633	11169
4.89700	11162
4.89767	11156
4.89833	11149
4.89900	11142
4.89967	11136
4.90033	11129
4.90100	11123
4.90167	11116
4.90233	11110
4.90300	11104
4.90367	11097
4.90433	11091
4.90500	11085
4.90567	11078
4.90633	11072
4.90700	11065
4.90767	11059
4.90833	11053
4.90900	11046
4.90967	11040
4.91033	11033
4.91100	11027
4.91167	11020
4.91233	11014
4.91300	11007
4.91367	11001
4.91433	10994
4.91500	10988
4.91567	10982
4.91633	10976
4.91700	10969
4.91767	10963
4.91833	10957
4.91900	10951
4.91967	10945
4.92033	10939
4.92100	10934
4.92167	10928
4.92233	10922
4.92300	10916
4.92367	10911
4.92433	10905
4.92500	10900
4.92567	10894
4.92633	10888
4.92700	10883
4.92767	10877
4.92833	10872
4.92900	10867
4.92967	10861
4.93033	10856
4.93100	10850
4.93167	10845
4.93233	10840
4.93300	10835
4.93367	10830
4.93433	10825
4.93500	10820
4.93567	10815
4.93633	10810
4.93700	10805
4.93767	10800
4.93833	10795
4.93900	10790
4.93967	10786
4.94033	10781
4.94100	10776
4.94167	10771
4.94233	10767
4.94300	10762
4.94367	10758
4.94433	10753
4.94500	10749
4.94567	10744
4.94633	10740
4.94700	10736
4.94767	10732
4.94833	10728
4.94900	10723
4.94967	10719
4.95033	10715
4.95100	10711
4.95167	10707
4.95233	10703
4.95300	10699
4.95367	10695
4.95433	10691
4.95500	10687
4.95567	10683
4.95633	10678
4.95700	10674
4.95767	10670
4.95833	10666
4.95900	10662
4.95967	10658
4.96033	10654
4.96100	10650
4.96167	10646
4.96233	10642
4.96300	10638
4.96367	10634
4.96433	10631
4.96500	10627
4.96567	10623
4.96633	10620
4.96700	10616
4.96767	10612
4.96833	10609
4.96900	10605
4.96967	10602
4.97033	10599
4.97100	10595
4.97167	10592
4.97233	10589
4.97300	10586
4.97367	10583
4.97433	10580
4.97500	10577
4.97567	10574
4.97633	10571
4.97700	10568
4.97767	10566
4.97833	10563
4.97900	10560
4.97967	10558
4.98033	10555
4.98100	10553
4.98167	10550
4.98233	10548
4.98300	10546
4.98367	10543
4.98433	10541
4.98500	10539
4.98567	10536
4.98633	10534
4.98700	10532
4.98767	10530
4.98833	10527
4.98900	10525
4.98967	10523
4.99033	10521
4.99100	10519
4.99167	10517
4.99233	10515
4.99300	10512
4.99367	10510
4.99433	10508
4.99500	10505
4.99567	10503
4.99633	10501
4.99700	10498
4.99767	10496
4.99833	10493
4.99900	10490
4.99967	10487
5.00033	10485
5.00100	10482
5.00167	10479
5.00233	10476
5.00300	10473
5.00367	10470
5.00433	10467
5.00500	10464
5.00567	10461
5.00633	10458
5.00700	10455
5.00767	10452
5.00833	10449
5.00900	10446
5.00967	10443
5.01033	10440
5.01100	10437
5.01167	10434
5.01233	10431
5.01300	10428
5.01367	10424
5.01433	10421
5.01500	10418
5.01567	10415
5.01633	10412
5.01700	10409
5.01767	10406
5.01833	10402
5.01900	10399
5.01967	10395
5.02033	10392
5.02100	10388
5.02167	10385
5.02233	10381
5.02300	10377
5.02367	10374
5.02433	10370
5.02500	10366
5.02567	10362
5.02633	10357
5.02700	10353
5.02767	10349
5.02833	10345
5.02900	10340
5.02967	10336
5.03033	10331
5.03100	10326
5.03167	10322
5.03233	10317
5.03300	10312
5.03367	10307
5.03433	10302
5.03500	10297
5.03567	10292
5.03633	10287
5.03700	10281
5.03767	10276
5.03833	10271
5.03900	10265
5.03967	10260
5.04033	10254
5.04100	10249
5.04167	10243
5.04233	10237
5.04300	10231
5.04367	10225
5.04433	10219
5.04500	10213
5.04567	10207
5.04633	10201
5.04700	10195
5.04767	10189
5.04833	10183
5.04900	10177
5.04967	10171
5.05033	10165
5.05100	10159
5.05167	10153
5.05233	10147
5.05300	10141
5.05367	10135
5.05433	10129
5.05500	10123
5.05567	10117
5.05633	10111
5.05700	10105
5.05767	10099
5.05833	10093
5.05900	10087
5.05967	10081
5.06033	10074
5.06100	10068
5.06167	10062
5.06233	10055
5.06300	10049
5.06367	10042
5.06433	10036
5.06500	10029
5.06567	10023
5.06633	10016
5.06700	10010
5.06767	10003
5.06833	9997
5.06900	9991
5.06967	9984
5.07033	9978
5.07100	9972
5.07167	9966
5.07233	9960
5.07300	9954
5.07367	9948
5.07433	9942
5.07500	9936
5.07567	9930
5.07633	9924
5.07700	9918
5.07767	9912
5.07833	9906
5.07900	9900
5.07967	9894
5.08033	9888
5.08100	9882
5.08167	9877
5.08233	9871
5.08300	9865
5.08367	9859
5.08433	9853
5.08500	9848
5.08567	9842
5.08633	9836
5.08700	9830
5.08767	9825
5.08833	9819
5.08900	9813
5.08967	9808
5.09033	9802
5.09100	9796
5.09167	9791
5.09233	9785
5.09300	9780
5.09367	9774
5.09433	9769
5.09500	9764
5.09567	9758
5.09633	9753
5.09700	9748
5.09767	9743
5.09833	9738
5.09900	9733
5.09967	9729
5.10033	9724
5.10100	9719
5.10167	9715
5.10233	9710
5.10300	9706
5.10367	9702
5.10433	9698
5.10500	9694
5.10567	9690
5.10633	9686
5.10700	9682
5.10767	9678
5.10833	9675
5.10900	9671
5.10967	9668
5.11033	9664
5.11100	9661
5.11167	9658
5.11233	9655
5.11300	9652
5.11367	9649
5.11433	9646
5.11500	9644
5.11567	9641
5.11633	9639
5.11700	9636
5.11767	9634
5.11833	9632
5.11900	9629
5.11967	9627
5.12033	9625
5.12100	9623
5.12167	9621
5.12233	9619
5.12300	9618
5.12367	9616
5.12433	9614
5.12500	9613
5.12567	9611
5.12633	9610
5.12700	9609
5.12767	9608
5.12833	9606
5.12900	9606
5.12967	9605
5.13033	9604
5.13100	9603
5.13167	9603
5.13233	9602
5.13300	9602
5.13367	9601
5.13433	9601
5.13500	9601
5.13567	9601
5.13633	9601
5.13700	9601
5.13767	9602
5.13833	9602
5.13900	9602
5.13967	9603
5.14033	9604
5.14100	9604
5.14167	9605
5.14233	9607
5.14300	9608
5.14367	9609
5.14433	9611
5.14500	9613
5.14567	9615
5.14633	9617
5.14700	9619
5.14767	9622
5.14833	9624
5.14900	9627
5.14967	9630
5.15033	9634
5.15100	9637
5.15167	9641
5.15233	9644
5.15300	9648
5.15367	9652
5.15433	9657
5.15500	9661
5.15567	9666
5.15633	9671
5.15700	9676
5.15767	9681
5.15833	9686
5.15900	9692
5.15967	9698
5.16033	9704
5.16100	9710
5.16167	9716
5.16233	9723
5.16300	9730
5.16367	9737
5.16433	9744
5.16500	9751
5.16567	9759
5.16633	9766
5.16700	9774
5.16767	9782
5.16833	9791
5.16900	9799
5.16967	9807
5.17033	9816
5.17100	9825
5.17167	9834
5.17233	9844
5.17300	9853
5.17367	9863
5.17433	9872
5.17500	9882
5.17567	9892
5.17633	9903
5.17700	9913
5.17767	9924
5.17833	9934
5.17900	9945
5.17967	9956
5.18033	9967
5.18100	9978
5.18167	9990
5.18233	10001
5.18300	10013
5.18367	10024
5.18433	10036
5.18500	10048
5.18567	10060
5.18633	10072
5.18700	10084
5.18767	10096
5.18833	10108
5.18900	10121
5.18967	10133
5.19033	10145
5.19100	10157
5.19167	10170
5.19233	10182
5.19300	10194
5.19367	10207
5.19433	10219
5.19500	10231
5.19567	10243
5.19633	10256
5.19700	10268
5.19767	10280
5.19833	10292
5.19900	10304
5.19967	10316
5.20033	10328
5.20100	10340
5.20167	10352
5.20233	10364
5.20300	10375
5.20367	10387
5.20433	10398
5.20500	10409
5.20567	10420
5.20633	10431
5.20700	10442
5.20767	10452
5.20833	10462
5.20900	10472
5.20967	10482
5.21033	10492
5.21100	10501
5.21167	10510
5.21233	10519
5.21300	10528
5.21367	10536
5.21433	10544
5.21500	10552
5.21567	10560
5.21633	10568
5.21700	10575
5.21767	10582
5.21833	10589
5.21900	10596
5.21967	10602
5.22033	10608
5.22100	10614
5.22167	10619
5.22233	10625
5.22300	10630
5.22367	10635
5.22433	10639
5.22500	10643
5.22567	10647
5.22633	10651
5.22700	10654
5.22767	10657
5.22833	10659
5.22900	10662
5.22967	10663
5.23033	10665
5.23100	10666
5.23167	10667
5.23233	10668
5.23300	10668
5.23367	10668
5.23433	10668
5.23500	10667
5.23567	10666
5.23633	10665
5.23700	10663
5.23767	10662
5.23833	10659
5.23900	10657
5.23967	10654
5.24033	10651
5.24100	10648
5.24167	10644
5.24233	10640
5.24300	10636
5.24367	10631
5.24433	10627
5.24500	10622
5.24567	10616
5.24633	10611
5.24700	10605
5.24767	10600
5.24833	10593
5.24900	10587
5.24967	10581
5.25033	10574
5.25100	10567
5.25167	10560
5.25233	10553
5.25300	10546
5.25367	10538
5.25433	10530
5.25500	10522
5.25567	10514
5.25633	10506
5.25700	10497
5.25767	10488
5.25833	10479
5.25900	10470
5.25967	10461
5.26033	10452
5.26100	10442
5.26167	10432
5.26233	10422
5.26300	10412
5.26367	10402
5.26433	10391
5.26500	10381
5.26567	10370
5.26633	10360
5.26700	10349
5.26767	10338
5.26833	10327
5.26900	10316
5.26967	10305
5.27033	10293
5.27100	10282
5.27167	10271
5.27233	10259
5.27300	10247
5.27367	10236
5.27433	10224
5.27500	10212
5.27567	10200
5.27633	10188
5.27700	10176
5.27767	10165
5.27833	10153
5.27900	10141
5.27967	10129
5.28033	10117
5.28100	10105
5.28167	10093
5.28233	10081
5.28300	10069
5.28367	10057
5.28433	10045
5.28500	10034
5.28567	10022
5.28633	10010
5.28700	9999
5.28767	9988
5.28833	9976
5.28900	9965
5.28967	9954
5.29033	9942
5.29100	9931
5.29167	9920
5.29233	9909
5.29300	9898
5.29367	9887
5.29433	9876
5.29500	9866
5.29567	9855
5.29633	9844
5.29700	9834
5.29767	9823
5.29833	9813
5.29900	9802
5.29967	9792
5.30033	9782
5.30100	9772
5.30167	9762
5.30233	9753
5.30300	9743
5.30367	9734
5.30433	9724
5.30500	9715
5.30567	9706
5.30633	9697
5.30700	9688
5.30767	9680
5.30833	9671
5.30900	9663
5.30967	9654
5.31033	9646
5.31100	9639
5.31167	9631
5.31233	9623
5.31300	9616
5.31367	9609
5.31433	9602
5.31500	9595
5.31567	9588
5.31633	9582
5.31700	9575
5.31767	9569
5.31833	9563
5.31900	9557
5.31967	9552
5.32033	9546
5.32100	9541
5.32167	9536
5.32233	9531
5.32300	9526
5.32367	9521
5.32433	9516
5.32500	9512
5.32567	9508
5.32633	9504
5.32700	9500
5.32767	9496
5.32833	9492
5.32900	9489
5.32967	9486
5.33033	9483
5.33100	9480
5.33167	9477
5.33233	9475
5.33300	9473
5.33367	9471
5.33433	9469
5.33500	9467
5.33567	9466
5.33633	9465
5.33700	9463
5.33767	9462
5.33833	9462
5.33900	9461
5.33967	9460
5.34033	9460
5.34100	9460
5.34167	9460
5.34233	9460
5.34300	9460
5.34367	9460
5.34433	9461
5.34500	9462
5.34567	9463
5.34633	9464
5.34700	9465
5.34767	9466
5.34833	9468
5.34900	9469
5.34967	9471
5.35033	9473
5.35100	9476
5.35167	9478
5.35233	9481
5.35300	9483
5.35367	9486
5.35433	9489
5.35500	9493
5.35567	9496
5.35633	9500
5.35700	9503
5.35767	9507
5.35833	9511
5.35900	9516
5.35967	9520
5.36033	9524
5.36100	9529
5.36167	9533
5.36233	9538
5.36300	9543
5.36367	9548
5.36433	9553
5.36500	9558
5.36567	9563
5.36633	9568
5.36700	9573
5.36767	9578
5.36833	9583
5.36900	9589
5.36967	9594
5.37033	9599
5.37100	9605
5.37167	9610
5.37233	9616
5.37300	9621
5.37367	9627
5.37433	9633
5.37500	9638
5.37567	9644
5.37633	9650
5.37700	9655
5.37767	9661
5.37833	9667
5.37900	9673
5.37967	9679
5.38033	9685
5.38100	9691
5.38167	9697
5.38233	9703
5.38300	9709
5.38367	9714
5.38433	9720
5.38500	9726
5.38567	9732
5.38633	9738
5.38700	9743
5.38767	9749
5.38833	9755
5.38900	9761
5.38967	9766
5.39033	9772
5.39100	9777
5.39167	9783
5.39233	9788
5.39300	9794
5.39367	9799
5.39433	9804
5.39500	9809
5.39567	9815
5.39633	9820
5.39700	9824
5.39767	9829
5.39833	9834
5.39900	9838
5.39967	9843
5.40033	9847
5.40100	9851
5.40167	9855
5.40233	9859
5.40300	9863
5.40367	9866
5.40433	9870
5.40500	9873
5.40567	9877
5.40633	9880
5.40700	9883
5.40767	9886
5.40833	9889
5.40900	9891
5.40967	9894
5.41033	9896
5.41100	9898
5.41167	9900
5.41233	9902
5.41300	9904
5.41367	9905
5.41433	9907
5.41500	9908
5.41567	9909
5.41633	9910
5.41700	9911
5.41767	9911
5.41833	9912
5.41900	9912
5.41967	9912
5.42033	9912
5.42100	9911
5.42167	9911
5.42233	9910
5.42300	9909
5.42367	9908
5.42433	9907
5.42500	9905
5.42567	9904
5.42633	9902
5.42700	9900
5.42767	9898
5.42833	9895
5.42900	9892
5.42967	9890
5.43033	9887
5.43100	9883
5.43167	9880
5.43233	9877
5.43300	9873
5.43367	9869
5.43433	9865
5.43500	9861
5.43567	9856
5.43633	9852
5.43700	9847
5.43767	9842
5.43833	9837
5.43900	9832
5.43967	9826
5.44033	9820
5.44100	9815
5.44167	9809
5.44233	9803
5.44300	9797
5.44367	9790
5.44433	9784
5.44500	9777
5.44567	9771
5.44633	9764
5.44700	9757
5.44767	9750
5.44833	9743
5.44900	9735
5.44967	9728
5.45033	9720
5.45100	9713
5.45167	9705
5.45233	9697
5.45300	9689
5.45367	9681
5.45433	9673
5.45500	9665
5.45567	9657
5.45633	9648
5.45700	9640
5.45767	9632
5.45833	9623
5.45900	9614
5.45967	9606
5.46033	9597
5.46100	9588
5.46167	9579
5.46233	9569
5.46300	9560
5.46367	9551
5.46433	9541
5.46500	9532
5.46567	9522
5.46633	9512
5.46700	9502
5.46767	9492
5.46833	9482
5.46900	9472
5.46967	9462
5.47033	9452
5.47100	9442
5.47167	9432
5.47233	9422
5.47300	9412
5.47367	9402
5.47433	9392
5.47500	9382
5.47567	9372
5.47633	9362
5.47700	9352
5.47767	9341
5.47833	9331
5.47900	9321
5.47967	9311
5.48033	9301
5.48100	9290
5.48167	9280
5.48233	9270
5.48300	9259
5.48367	9249
5.48433	9239
5.48500	9228
5.48567	9218
5.48633	9208
5.48700	9198
5.48767	9187
5.48833	9177
5.48900	9167
5.48967	9157
5.49033	9147
5.49100	9137
5.49167	9127
5.49233	9117
5.49300	9107
5.49367	9097
5.49433	9088
5.49500	9078
5.49567	9068
5.49633	9059
5.49700	9049
5.49767	9040
5.49833	9031
5.49900	9021
5.49967	9012
5.50033	9003
5.50100	8994
5.50167	8985
5.50233	8976
5.50300	8968
5.50367	8959
5.50433	8951
5.50500	8942
5.50567	8934
5.50633	8925
5.50700	8917
5.50767	8909
5.50833	8901
5.50900	8893
5.50967	8885
5.51033	8877
5.51100	8869
5.51167	8861
5.51233	8853
5.51300	8845
5.51367	8838
5.51433	8830
5.51500	8823
5.51567	8815
5.51633	8808
5.51700	8801
5.51767	8794
5.51833	8787
5.51900	8780
5.51967	8773
5.52033	8766
5.52100	8759
5.52167	8752
5.52233	8745
5.52300	8738
5.52367	8732
5.52433	8725
5.52500	8719
5.52567	8712
5.52633	8706
5.52700	8700
5.52767	8693
5.52833	8687
5.52900	8681
5.52967	8675
5.53033	8669
5.53100	8664
5.53167	8658
5.53233	8652
5.53300	8647
5.53367	8641
5.53433	8636
5.53500	8631
5.53567	8626
5.53633	8621
5.53700	8616
5.53767	8611
5.53833	8606
5.53900	8601
5.53967	8596
5.54033	8592
5.54100	8587
5.54167	8583
5.54233	8578
5.54300	8574
5.54367	8570
5.54433	8565
5.54500	8561
5.54567	8557
5.54633	8553
5.54700	8549
5.54767	8546
5.54833	8542
5.54900	8538
5.54967	8535
5.55033	8531
5.55100	8528
5.55167	8525
5.55233	8522
5.55300	8519
5.55367	8516
5.55433	8513
5.55500	8510
5.55567	8508
5.55633	8505
5.55700	8503
5.55767	8501
5.55833	8498
5.55900	8496
5.55967	8494
5.56033	8493
5.56100	8491
5.56167	8489
5.56233	8487
5.56300	8486
5.56367	8485
5.56433	8483
5.56500	8482
5.56567	8481
5.56633	8480
5.56700	8479
5.56767	8478
5.56833	8477
5.56900	8477
5.56967	8476
5.57033	8475
5.57100	8474
5.57167	8474
5.57233	8473
5.57300	8473
5.57367	8472
5.57433	8472
5.57500	8472
5.57567	8471
5.57633	8471
5.57700	8471
5.57767	8471
5.57833	8470
5.57900	8470
5.57967	8470
5.58033	8470
5.58100	8470
5.58167	8470
5.58233	8470
5.58300	8470
5.58367	8470
5.58433	8471
5.58500	8471
5.58567	8471
5.58633	8472
5.58700	8472
5.58767	8472
5.58833	8473
5.58900	8474
5.58967	8474
5.59033	8475
5.59100	8475
5.59167	8476
5.59233	8477
5.59300	8477
5.59367	8478
5.59433	8479
5.59500	8480
5.59567	8481
5.59633	8482
5.59700	8483
5.59767	8483
5.59833	8484
5.59900	8485
5.59967	8486
5.60033	8487
5.60100	8487
5.60167	8488
5.60233	8489
5.60300	8489
5.60367	8490
5.60433	8490
5.60500	8491
5.60567	8491
5.60633	8492
5.60700	8492
5.60767	8492
5.60833	8492
5.60900	8493
5.60967	8493
5.61033	8493
5.61100	8493
5.61167	8493
5.61233	8493
5.61300	8493
5.61367	8493
5.61433	8493
5.61500	8493
5.61567	8493
5.61633	8493
5.61700	8493
5.61767	8493
5.61833	8493
5.61900	8493
5.61967	8492
5.62033	8492
5.62100	8492
5.62167	8491
5.62233	8491
5.62300	8490
5.62367	8490
5.62433	8489
5.62500	8488
5.62567	8487
5.62633	8487
5.62700	8486
5.62767	8485
5.62833	8484
5.62900	8483
5.62967	8482
5.63033	8481
5.63100	8479
5.63167	8478
5.63233	8477
5.63300	8475
5.63367	8474
5.63433	8472
5.63500	8471
5.63567	8470
5.63633	8468
5.63700	8466
5.63767	8465
5.63833	8463
5.63900	8462
5.63967	8460
5.64033	8458
5.64100	8456
5.64167	8455
5.64233	8453
5.64300	8451
5.64367	8449
5.64433	8447
5.64500	8445
5.64567	8443
5.64633	8440
5.64700	8438
5.64767	8436
5.64833	8433
5.64900	8431
5.64967	8429
5.65033	8426
5.65100	8424
5.65167	8421
5.65233	8418
5.65300	8416
5.65367	8413
5.65433	8410
5.65500	8408
5.65567	8405
5.65633	8402
5.65700	8399
5.65767	8396
5.65833	8393
5.65900	8390
5.65967	8387
5.66033	8383
5.66100	8380
5.66167	8377
5.66233	8374
5.66300	8371
5.66367	8367
5.66433	8364
5.66500	8361
5.66567	8358
5.66633	8355
5.66700	8351
5.66767	8348
5.66833	8345
5.66900	8341
5.66967	8338
5.67033	8335
5.67100	8331
5.67167	8328
5.67233	8324
5.67300	8321
5.67367	8317
5.67433	8313
5.67500	8310
5.67567	8306
5.67633	8303
5.67700	8299
5.67767	8295
5.67833	8292
5.67900	8288
5.67967	8284
5.68033	8281
5.68100	8277
5.68167	8273
5.68233	8270
5.68300	8266
5.68367	8262
5.68433	8258
5.68500	8255
5.68567	8251
5.68633	8247
5.68700	8243
5.68767	8240
5.68833	8236
5.68900	8232
5.68967	8229
5.69033	8225
5.69100	8221
5.69167	8217
5.69233	8214
5.69300	8210
5.69367	8207
5.69433	8203
5.69500	8199
5.69567	8196
5.69633	8192
5.69700	8189
5.69767	8185
5.69833	8181
5.69900	8178
5.69967	8174
5.70033	8171
5.70100	8167
5.70167	8164
5.70233	8160
5.70300	8157
5.70367	8154
5.70433	8150
5.70500	8147
5.70567	8144
5.70633	8141
5.70700	8138
5.70767	8135
5.70833	8132
5.70900	8129
5.70967	8126
5.71033	8123
5.71100	8120
5.71167	8117
5.71233	8115
5.71300	8112
5.71367	8109
5.71433	8107
5.71500	8104
5.71567	8102
5.71633	8099
5.71700	8097
5.71767	8095
5.71833	8092
5.71900	8090
5.71967	8088
5.72033	8086
5.72100	8083
5.72167	8081
5.72233	8079
5.72300	8077
5.72367	8075
5.72433	8073
5.72500	8071
5.72567	8069
5.72633	8067
5.72700	8066
5.72767	8064
5.72833	8062
5.72900	8060
5.72967	8059
5.73033	8057
5.73100	8056
5.73167	8054
5.73233	8053
5.73300	8051
5.73367	8050
5.73433	8049
5.73500	8048
5.73567	8046
5.73633	8045
5.73700	8044
5.73767	8044
5.73833	8043
5.73900	8042
5.73967	8042
5.74033	8041
5.74100	8041
5.74167	8040
5.74233	8040
5.74300	8040
5.74367	8040
5.74433	8040
5.74500	8040
5.74567	8040
5.74633	8040
5.74700	8040
5.74767	8041
5.74833	8041
5.74900	8041
5.74967	8042
5.75033	8043
5.75100	8043
5.75167	8044
5.75233	8045
5.75300	8046
5.75367	8047
5.75433	8049
5.75500	8050
5.75567	8052
5.75633	8053
5.75700	8055
5.75767	8057
5.75833	8059
5.75900	8062
5.75967	8064
5.76033	8067
5.76100	8070
5.76167	8073
5.76233	8076
5.76300	8079
5.76367	8083
5.76433	8087
5.76500	8091
5.76567	8095
5.76633	8099
5.76700	8104
5.76767	8109
5.76833	8114
5.76900	8119
5.76967	8124
5.77033	8130
5.77100	8135
5.77167	8141
5.77233	8147
5.77300	8153
5.77367	8159
5.77433	8166
5.77500	8172
5.77567	8179
5.77633	8186
5.77700	8193
5.77767	8201
5.77833	8208
5.77900	8216
5.77967	8224
5.78033	8232
5.78100	8240
5.78167	8249
5.78233	8258
5.78300	8267
5.78367	8276
5.78433	8285
5.78500	8295
5.78567	8304
5.78633	8314
5.78700	8324
5.78767	8335
5.78833	8345
5.78900	8356
5.78967	8367
5.79033	8378
5.79100	8390
5.79167	8401
5.79233	8413
5.79300	8425
5.79367	8437
5.79433	8450
5.79500	8462
5.79567	8475
5.79633	8488
5.79700	8502
5.79767	8515
5.79833	8529
5.79900	8543
5.79967	8557
5.80033	8571
5.80100	8586
5.80167	8601
5.80233	8616
5.80300	8631
5.80367	8646
5.80433	8662
5.80500	8678
5.80567	8694
5.80633	8711
5.80700	8727
5.80767	8744
5.80833	8761
5.80900	8778
5.80967	8796
5.81033	8813
5.81100	8831
5.81167	8849
5.81233	8867
5.81300	8886
5.81367	8905
5.81433	8923
5.81500	8942
5.81567	8961
5.81633	8981
5.81700	9000
5.81767	9020
5.81833	9039
5.81900	9059
5.81967	9079
5.82033	9099
5.82100	9120
5.82167	9140
5.82233	9160
5.82300	9181
5.82367	9201
5.82433	9222
5.82500	9243
5.82567	9264
5.82633	9285
5.82700	9305
5.82767	9326
5.82833	9347
5.82900	9368
5.82967	9389
5.83033	9410
5.83100	9432
5.83167	9453
5.83233	9473
5.83300	9494
5.83367	9515
5.83433	9536
5.83500	9557
5.83567	9578
5.83633	9598
5.83700	9619
5.83767	9640
5.83833	9660
5.83900	9681
5.83967	9701
5.84033	9721
5.84100	9742
5.84167	9762
5.84233	9782
5.84300	9801
5.84367	9821
5.84433	9841
5.84500	9860
5.84567	9880
5.84633	9899
5.84700	9918
5.84767	9937
5.84833	9956
5.84900	9974
5.84967	9993
5.85033	10011
5.85100	10029
5.85167	10047
5.85233	10064
5.85300	10082
5.85367	10099
5.85433	10117
5.85500	10133
5.85567	10150
5.85633	10167
5.85700	10183
5.85767	10199
5.85833	10215
5.85900	10231
5.85967	10247
5.86033	10262
5.86100	10277
5.86167	10292
5.86233	10306
5.86300	10320
5.86367	10334
5.86433	10348
5.86500	10361
5.86567	10374
5.86633	10387
5.86700	10400
5.86767	10412
5.86833	10424
5.86900	10436
5.86967	10447
5.87033	10458
5.87100	10469
5.87167	10480
5.87233	10490
5.87300	10500
5.87367	10510
5.87433	10519
5.87500	10529
5.87567	10537
5.87633	10546
5.87700	10554
5.87767	10562
5.87833	10570
5.87900	10578
5.87967	10585
5.88033	10592
5.88100	10598
5.88167	10605
5.88233	10610
5.88300	10616
5.88367	10621
5.88433	10626
5.88500	10631
5.88567	10635
5.88633	10639
5.88700	10642
5.88767	10645
5.88833	10648
5.88900	10651
5.88967	10653
5.89033	10654
5.89100	10656
5.89167	10657
5.89233	10658
5.89300	10658
5.89367	10658
5.89433	10658
5.89500	10658
5.89567	10657
5.89633	10656
5.89700	10655
5.89767	10653
5.89833	10651
5.89900	10649
5.89967	10647
5.90033	10644
5.90100	10641
5.90167	10638
5.90233	10635
5.90300	10631
5.90367	10627
5.90433	10623
5.90500	10618
5.90567	10614
5.90633	10609
5.90700	10604
5.90767	10598
5.90833	10593
5.90900	10587
5.90967	10581
5.91033	10575
5.91100	10569
5.91167	10562
5.91233	10556
5.91300	10549
5.91367	10542
5.91433	10535
5.91500	10527
5.91567	10520
5.91633	10512
5.91700	10504
5.91767	10496
5.91833	10487
5.91900	10479
5.91967	10470
5.92033	10462
5.92100	10453
5.92167	10444
5.92233	10434
5.92300	10425
5.92367	10415
5.92433	10406
5.92500	10396
5.92567	10386
5.92633	10376
5.92700	10366
5.92767	10356
5.92833	10345
5.92900	10335
5.92967	10325
5.93033	10314
5.93100	10303
5.93167	10293
5.93233	10282
5.93300	10271
5.93367	10260
5.93433	10249
5.93500	10238
5.93567	10227
5.93633	10216
5.93700	10204
5.93767	10193
5.93833	10182
5.93900	10170
5.93967	10159
5.94033	10148
5.94100	10136
5.94167	10125
5.94233	10113
5.94300	10102
5.94367	10090
5.94433	10079
5.94500	10067
5.94567	10055
5.94633	10044
5.94700	10032
5.94767	10021
5.94833	10009
5.94900	9998
5.94967	9986
5.95033	9975
5.95100	9964
5.95167	9952
5.95233	9941
5.95300	9929
5.95367	9918
5.95433	9907
5.95500	9895
5.95567	9884
5.95633	9873
5.95700	9861
5.95767	9850
5.95833	9838
5.95900	9827
5.95967	9816
5.96033	9804
5.96100	9793
5.96167	9782
5.96233	9771
5.96300	9759
5.96367	9748
5.96433	9737
5.96500	9726
5.96567	9715
5.96633	9704
5.96700	9694
5.96767	9683
5.96833	9672
5.96900	9661
5.96967	9651
5.97033	9640
5.97100	9630
5.97167	9620
5.97233	9609
5.97300	9599
5.97367	9589
5.97433	9579
5.97500	9569
5.97567	9559
5.97633	9549
5.97700	9539
5.97767	9529
5.97833	9519
5.97900	9510
5.97967	9500
5.98033	9491
5.98100	9481
5.98167	9472
5.98233	9463
5.98300	9454
5.98367	9445
5.98433	9436
5.98500	9427
5.98567	9418
5.98633	9409
5.98700	9401
5.98767	9392
5.98833	9384
5.98900	9375
5.98967	9367
5.99033	9358
5.99100	9350
5.99167	9342
5.99233	9334
5.99300	9326
5.99367	9318
5.99433	9310
5.99500	9303
5.99567	9295
5.99633	9287
5.99700	9280
5.99767	9272
5.99833	9265
5.99900	9257
5.99967	9250
6.00033	9243
6.00100	9235
6.00167	9228
6.00233	9221
6.00300	9214
6.00367	9207
6.00433	9200
6.00500	9193
6.00567	9186
6.00633	9180
6.00700	9173
6.00767	9166
6.00833	9159
6.00900	9152
6.00967	9146
6.01033	9139
6.01100	9132
6.01167	9126
6.01233	9119
6.01300	9113
6.01367	9106
6.01433	9100
6.01500	9093
6.01567	9087
6.01633	9080
6.01700	9074
6.01767	9068
6.01833	9061
6.01900	9055
6.01967	9048
6.02033	9042
6.02100	9036
6.02167	9030
6.02233	9024
6.02300	9017
6.02367	9011
6.02433	9005
6.02500	8999
6.02567	8993
6.02633	8987
6.02700	8982
6.02767	8976
6.02833	8970
6.02900	8964
6.02967	8958
6.03033	8953
6.03100	8947
6.03167	8942
6.03233	8936
6.03300	8931
6.03367	8925
6.03433	8920
6.03500	8914
6.03567	8909
6.03633	8904
6.03700	8899
6.03767	8893
6.03833	8888
6.03900	8883
6.03967	8877
6.04033	8872
6.04100	8867
6.04167	8861
6.04233	8856
6.04300	8851
6.04367	8846
6.04433	8840
6.04500	8835
6.04567	8830
6.04633	8824
6.04700	8819
6.04767	8814
6.04833	8809
6.04900	8804
6.04967	8799
6.05033	8794
6.05100	8790
6.05167	8785
6.05233	8780
6.05300	8775
6.05367	8771
6.05433	8766
6.05500	8762
6.05567	8757
6.05633	8752
6.05700	8748
6.05767	8743
6.05833	8739
6.05900	8735
6.05967	8730
6.06033	8726
6.06100	8722
6.06167	8717
6.06233	8713
6.06300	8709
6.06367	8705
6.06433	8701
6.06500	8696
6.06567	8692
6.06633	8688
6.06700	8684
6.06767	8680
6.06833	8676
6.06900	8672
6.06967	8667
6.07033	8663
6.07100	8659
6.07167	8655
6.07233	8651
6.07300	8647
6.07367	8643
6.07433	8640
6.07500	8636
6.07567	8632
6.07633	8628
6.07700	8624
6.07767	8621
6.07833	8617
6.07900	8613
6.07967	8610
6.08033	8606
6.08100	8603
6.08167	8600
6.08233	8596
6.08300	8593
6.08367	8590
6.08433	8586
6.08500	8583
6.08567	8580
6.08633	8577
6.08700	8573
6.08767	8570
6.08833	8567
6.08900	8564
6.08967	8561
6.09033	8558
6.09100	8555
6.09167	8551
6.09233	8548
6.09300	8545
6.09367	8542
6.09433	8539
6.09500	8536
6.09567	8533
6.09633	8530
6.09700	8527
6.09767	8524
6.09833	8521
6.09900	8518
6.09967	8515
6.10033	8513
6.10100	8510
6.10167	8507
6.10233	8504
6.10300	8501
6.10367	8498
6.10433	8496
6.10500	8493
6.10567	8490
6.10633	8487
6.10700	8485
6.10767	8482
6.10833	8479
6.10900	8476
6.10967	8474
6.11033	8471
6.11100	8468
6.11167	8465
6.11233	8463
6.11300	8460
6.11367	8457
6.11433	8454
6.11500	8451
6.11567	8448
6.11633	8445
6.11700	8442
6.11767	8439
6.11833	8436
6.11900	8433
6.11967	8430
6.12033	8427
6.12100	8424
6.12167	8421
6.12233	8418
6.12300	8415
6.12367	8412
6.12433	8410
6.12500	8407
6.12567	8404
6.12633	8401
6.12700	8398
6.12767	8395
6.12833	8392
6.12900	8389
6.12967	8386
6.13033	8383
6.13100	8380
6.13167	8377
6.13233	8375
6.13300	8372
6.13367	8369
6.13433	8366
6.13500	8363
6.13567	8360
6.13633	8357
6.13700	8354
6.13767	8351
6.13833	8348
6.13900	8345
6.13967	8342
6.14033	8339
6.14100	8335
6.14167	8332
6.14233	8329
6.14300	8326
6.14367	8323
6.14433	8319
6.14500	8316
6.14567	8313
6.14633	8310
6.14700	8306
6.14767	8303
6.14833	8300
6.14900	8296
6.14967	8293
6.15033	8290
6.15100	8286
6.15167	8283
6.15233	8280
6.15300	8276
6.15367	8273
6.15433	8270
6.15500	8266
6.15567	8263
6.15633	8260
6.15700	8256
6.15767	8253
6.15833	8250
6.15900	8246
6.15967	8243
6.16033	8240
6.16100	8236
6.16167	8233
6.16233	8230
6.16300	8227
6.16367	8224
6.16433	8220
6.16500	8217
6.16567	8214
6.16633	8211
6.16700	8208
6.16767	8204
6.16833	8201
6.16900	8198
6.16967	8195
6.17033	8192
6.17100	8189
6.17167	8185
6.17233	8182
6.17300	8179
6.17367	8176
6.17433	8173
6.17500	8169
6.17567	8166
6.17633	8163
6.17700	8160
6.17767	8156
6.17833	8153
6.17900	8150
6.17967	8147
6.18033	8144
6.18100	8141
6.18167	8138
6.18233	8135
6.18300	8132
6.18367	8129
6.18433	8126
6.18500	8123
6.18567	8120
6.18633	8118
6.18700	8115
6.18767	8112
6.18833	8109
6.18900	8107
6.18967	8104
6.19033	8102
6.19100	8099
6.19167	8097
6.19233	8094
6.19300	8091
6.19367	8089
6.19433	8086
6.19500	8084
6.19567	8081
6.19633	8079
6.19700	8077
6.19767	8074
6.19833	8072
6.19900	8069
6.19967	8067
6.20033	8065
6.20100	8062
6.20167	8060
6.20233	8058
6.20300	8056
6.20367	8054
6.20433	8051
6.20500	8049
6.20567	8047
6.20633	8045
6.20700	8043
6.20767	8041
6.20833	8039
6.20900	8037
6.20967	8035
6.21033	8033
6.21100	8031
6.21167	8029
6.21233	8027
6.21300	8026
6.21367	8024
6.21433	8022
6.21500	8020
6.21567	8018
6.21633	8016
6.21700	8015
6.21767	8013
6.21833	8011
6.21900	8010
6.21967	8008
6.22033	8006
6.22100	8005
6.22167	8003
6.22233	8002
6.22300	8000
6.22367	7999
6.22433	7997
6.22500	7996
6.22567	7994
6.22633	7993
6.22700	7992
6.22767	7990
6.22833	7989
6.22900	7988
6.22967	7986
6.23033	7985
6.23100	7984
6.23167	7983
6.23233	7982
6.23300	7981
6.23367	7980
6.23433	7979
6.23500	7978
6.23567	7977
6.23633	7976
6.23700	7975
6.23767	7974
6.23833	7973
6.23900	7972
6.23967	7972
6.24033	7971
6.24100	7970
6.24167	7969
6.24233	7968
6.24300	7967
6.24367	7966
6.24433	7965
6.24500	7964
6.24567	7964
6.24633	7963
6.24700	7962
6.24767	7961
6.24833	7961
6.24900	7960
6.24967	7959
6.25033	7959
6.25100	7958
6.25167	7957
6.25233	7957
6.25300	7956
6.25367	7956
6.25433	7955
6.25500	7954
6.25567	7954
6.25633	7953
6.25700	7953
6.25767	7952
6.25833	7952
6.25900	7951
6.25967	7951
6.26033	7951
6.26100	7951
6.26167	7950
6.26233	7950
6.26300	7950
6.26367	7950
6.26433	7949
6.26500	7949
6.26567	7949
6.26633	7949
6.26700	7949
6.26767	7949
6.26833	7949
6.26900	7948
6.26967	7948
6.27033	7948
6.27100	7948
6.27167	7948
6.27233	7948
6.27300	7948
6.27367	7948
6.27433	7948
6.27500	7948
6.27567	7948
6.27633	7948
6.27700	7948
6.27767	7948
6.27833	7948
6.27900	7949
6.27967	7949
6.28033	7949
6.28100	7949
6.28167	7949
6.28233	7949
6.28300	7949
6.28367	7949
6.28433	7949
6.28500	7949
6.28567	7948
6.28633	7948
6.28700	7948
6.28767	7948
6.28833	7948
6.28900	7947
6.28967	7947
6.29033	7946
6.29100	7946
6.29167	7945
6.29233	7945
6.29300	7944
6.29367	7944
6.29433	7943
6.29500	7943
6.29567	7942
6.29633	7941
6.29700	7941
6.29767	7940
6.29833	7939
6.29900	7938
6.29967	7937
6.30033	7936
6.30100	7935
6.30167	7934
6.30233	7933
6.30300	7932
6.30367	7931
6.30433	7929
6.30500	7928
6.30567	7927
6.30633	7925
6.30700	7924
6.30767	7922
6.30833	7921
6.30900	7919
6.30967	7918
6.31033	7916
6.31100	7915
6.31167	7913
6.31233	7911
6.31300	7909
6.31367	7908
6.31433	7906
6.31500	7904
6.31567	7902
6.31633	7900
6.31700	7898
6.31767	7896
6.31833	7894
6.31900	7892
6.31967	7890
6.32033	7888
6.32100	7886
6.32167	7884
6.32233	7881
6.32300	7879
6.32367	7877
6.32433	7875
6.32500	7873
6.32567	7870
6.32633	7868
6.32700	7866
6.32767	7864
6.32833	7861
6.32900	7859
6.32967	7857
6.33033	7854
6.33100	7852
6.33167	7850
6.33233	7847
6.33300	7845
6.33367	7843
6.33433	7840
6.33500	7838
6.33567	7836
6.33633	7833
6.33700	7831
6.33767	7828
6.33833	7826
6.33900	7823
6.33967	7821
6.34033	7819
6.34100	7816
6.34167	7814
6.34233	7811
6.34300	7808
6.34367	7806
6.34433	7803
6.34500	7801
6.34567	7798
6.34633	7795
6.34700	7793
6.34767	7790
6.34833	7788
6.34900	7785
6.34967	7782
6.35033	7780
6.35100	7777
6.35167	7774
6.35233	7772
6.35300	7769
6.35367	7766
6.35433	7763
6.35500	7761
6.35567	7758
6.35633	7755
6.35700	7752
6.35767	7749
6.35833	7746
6.35900	7743
6.35967	7740
6.36033	7737
6.36100	7734
6.36167	7731
6.36233	7728
6.36300	7725
6.36367	7722
6.36433	7719
6.36500	7716
6.36567	7713
6.36633	7710
6.36700	7707
6.36767	7704
6.36833	7701
6.36900	7698
6.36967	7695
6.37033	7692
6.37100	7689
6.37167	7686
6.37233	7683
6.37300	7680
6.37367	7677
6.37433	7674
6.37500	7671
6.37567	7669
6.37633	7666
6.37700	7663
6.37767	7660
6.37833	7658
6.37900	7655
6.37967	7652
6.38033	7649
6.38100	7647
6.38167	7644
6.38233	7641
6.38300	7639
6.38367	7636
6.38433	7633
6.38500	7631
6.38567	7628
6.38633	7626
6.38700	7623
6.38767	7621
6.38833	7618
6.38900	7616
6.38967	7613
6.39033	7610
6.39100	7608
6.39167	7605
6.39233	7603
6.39300	7600
6.39367	7597
6.39433	7595
6.39500	7592
6.39567	7590
6.39633	7587
6.39700	7584
6.39767	7582
6.39833	7579
6.39900	7577
6.39967	7574

