[Header]
Application Name	LabSolutions
Version	5.73
Data File Name	C:\LabSolutions\Data\Project1\stephen\2016-01-11\5000_2PA.gcd
Output Date	1/11/2016
Output Time	1:18:01 PM

[Configuration]
Instrument Name	WEISSTA-PC-Instrument1
Instrument #	1
Line #	1
# of Detectors	1
Detector ID	DET#2
Detector Name	DFID1
# of Channels	1

[Chromatogram (Ch1)]
Interval(msec)	40
# of Points	9599
Start Time(min)	0.001
End Time(min)	6.399
R.Time (min)	Intensity
0.00067	-15
0.00133	-16
0.00200	-16
0.00267	-16
0.00333	-16
0.00400	-16
0.00467	-16
0.00533	-16
0.00600	-16
0.00667	-16
0.00733	-16
0.00800	-16
0.00867	-16
0.00933	-16
0.01000	-16
0.01067	-16
0.01133	-16
0.01200	-16
0.01267	-17
0.01333	-17
0.01400	-17
0.01467	-17
0.01533	-17
0.01600	-17
0.01667	-18
0.01733	-18
0.01800	-18
0.01867	-19
0.01933	-19
0.02000	-20
0.02067	-20
0.02133	-21
0.02200	-21
0.02267	-22
0.02333	-22
0.02400	-23
0.02467	-24
0.02533	-24
0.02600	-25
0.02667	-26
0.02733	-27
0.02800	-27
0.02867	-28
0.02933	-29
0.03000	-30
0.03067	-31
0.03133	-31
0.03200	-32
0.03267	-33
0.03333	-34
0.03400	-34
0.03467	-35
0.03533	-36
0.03600	-37
0.03667	-37
0.03733	-38
0.03800	-39
0.03867	-40
0.03933	-40
0.04000	-41
0.04067	-42
0.04133	-42
0.04200	-43
0.04267	-44
0.04333	-45
0.04400	-45
0.04467	-46
0.04533	-46
0.04600	-47
0.04667	-48
0.04733	-48
0.04800	-49
0.04867	-49
0.04933	-50
0.05000	-51
0.05067	-51
0.05133	-52
0.05200	-52
0.05267	-53
0.05333	-53
0.05400	-54
0.05467	-55
0.05533	-55
0.05600	-56
0.05667	-56
0.05733	-57
0.05800	-57
0.05867	-58
0.05933	-58
0.06000	-58
0.06067	-59
0.06133	-59
0.06200	-60
0.06267	-60
0.06333	-61
0.06400	-61
0.06467	-61
0.06533	-62
0.06600	-62
0.06667	-63
0.06733	-63
0.06800	-63
0.06867	-64
0.06933	-64
0.07000	-64
0.07067	-65
0.07133	-65
0.07200	-66
0.07267	-66
0.07333	-66
0.07400	-67
0.07467	-67
0.07533	-67
0.07600	-68
0.07667	-68
0.07733	-69
0.07800	-69
0.07867	-69
0.07933	-67
0.08000	-61
0.08067	-43
0.08133	3
0.08200	75
0.08267	185
0.08333	345
0.08400	565
0.08467	844
0.08533	1190
0.08600	1621
0.08667	2155
0.08733	2767
0.08800	3518
0.08867	4398
0.08933	5383
0.09000	6443
0.09067	7557
0.09133	8718
0.09200	9912
0.09267	11124
0.09333	12372
0.09400	13666
0.09467	14969
0.09533	16254
0.09600	17537
0.09667	18843
0.09733	20196
0.09800	21583
0.09867	23013
0.09933	24439
0.10000	25831
0.10067	27210
0.10133	28570
0.10200	29888
0.10267	31129
0.10333	32291
0.10400	33390
0.10467	34412
0.10533	35377
0.10600	36268
0.10667	37089
0.10733	37875
0.10800	38621
0.10867	39319
0.10933	39993
0.11000	40615
0.11067	41175
0.11133	41682
0.11200	42152
0.11267	42560
0.11333	42903
0.11400	43194
0.11467	43438
0.11533	43634
0.11600	43789
0.11667	43924
0.11733	44022
0.11800	44080
0.11867	44097
0.11933	44066
0.12000	43990
0.12067	43881
0.12133	43756
0.12200	43780
0.12267	44738
0.12333	49266
0.12400	63938
0.12467	102915
0.12533	192875
0.12600	375847
0.12667	704119
0.12733	1234517
0.12800	2022217
0.12867	3117232
0.12933	4558644
0.13000	6374229
0.13067	8578184
0.13133	11174560
0.13200	14157671
0.13267	17515884
0.13333	21232516
0.13400	25287797
0.13467	29659404
0.13533	34323710
0.13600	39256510
0.13667	44433749
0.13733	49831156
0.13800	55425194
0.13867	61193197
0.13933	67113727
0.14000	73166815
0.14067	79333746
0.14133	85596789
0.14200	91939436
0.14267	98345929
0.14333	104801454
0.14400	111292563
0.14467	117806768
0.14533	124332262
0.14600	130857919
0.14667	137373397
0.14733	143869251
0.14800	150336407
0.14867	156766658
0.14933	163152662
0.15000	169487984
0.15067	175766400
0.15133	181982329
0.15200	188130428
0.15267	194205840
0.15333	200204295
0.15400	206122130
0.15467	211955951
0.15533	217702563
0.15600	223358929
0.15667	228922213
0.15733	234389984
0.15800	239760660
0.15867	245032816
0.15933	250204867
0.16000	255275394
0.16067	260243264
0.16133	265107918
0.16200	269868715
0.16267	274525496
0.16333	279078348
0.16400	283527087
0.16467	287871465
0.16533	292111691
0.16600	296248511
0.16667	300282783
0.16733	304215016
0.16800	308045960
0.16867	311776373
0.16933	315407079
0.17000	318939043
0.17067	322373764
0.17133	325712613
0.17200	328956703
0.17267	332107219
0.17333	335165589
0.17400	338133440
0.17467	341012080
0.17533	343802715
0.17600	346506544
0.17667	349125034
0.17733	351659590
0.17800	354111222
0.17867	356479422
0.17933	358762901
0.18000	360959543
0.18067	363048611
0.18133	364966139
0.18200	366649964
0.18267	368082420
0.18333	369271560
0.18400	370228676
0.18467	370964613
0.18533	371489211
0.18600	371811532
0.18667	371939970
0.18733	371882380
0.18800	371645864
0.18867	371236532
0.18933	370659836
0.19000	369920496
0.19067	369022817
0.19133	367970454
0.19200	366766798
0.19267	365414557
0.19333	363916380
0.19400	362274365
0.19467	360490779
0.19533	358567505
0.19600	356506552
0.19667	354309621
0.19733	351978739
0.19800	349515782
0.19867	346922911
0.19933	344202269
0.20000	341356302
0.20067	338387568
0.20133	335298985
0.20200	332093724
0.20267	328775178
0.20333	325347102
0.20400	321813475
0.20467	318178636
0.20533	314447143
0.20600	310623960
0.20667	306714214
0.20733	302723521
0.20800	298657511
0.20867	294522037
0.20933	290323097
0.21000	286066893
0.21067	281759581
0.21133	277407444
0.21200	273016645
0.21267	268593360
0.21333	264143599
0.21400	259673278
0.21467	255188123
0.21533	250693694
0.21600	246195334
0.21667	241698168
0.21733	237207095
0.21800	232726793
0.21867	228261689
0.21933	223815969
0.22000	219393586
0.22067	214998250
0.22133	210633449
0.22200	206302426
0.22267	202008211
0.22333	197753603
0.22400	193541202
0.22467	189373387
0.22533	185252348
0.22600	181180076
0.22667	177158386
0.22733	173188909
0.22800	169273111
0.22867	165412297
0.22933	161607622
0.23000	157860092
0.23067	154170576
0.23133	150539810
0.23200	146968412
0.23267	143456879
0.23333	140005601
0.23400	136614862
0.23467	133284852
0.23533	130015667
0.23600	126807319
0.23667	123659741
0.23733	120572794
0.23800	117546269
0.23867	114579892
0.23933	111673330
0.24000	108826193
0.24067	106038044
0.24133	103308397
0.24200	100636723
0.24267	98022453
0.24333	95464986
0.24400	92963684
0.24467	90517881
0.24533	88126887
0.24600	85789987
0.24667	83506447
0.24733	81275510
0.24800	79096401
0.24867	76968338
0.24933	74890522
0.25000	72862144
0.25067	70882389
0.25133	68950429
0.25200	67065436
0.25267	65226576
0.25333	63433014
0.25400	61683915
0.25467	59978443
0.25533	58315763
0.25600	56695043
0.25667	55115454
0.25733	53576171
0.25800	52076368
0.25867	50615233
0.25933	49191955
0.26000	47805734
0.26067	46455778
0.26133	45141298
0.26200	43861515
0.26267	42615660
0.26333	41402976
0.26400	40222712
0.26467	39074129
0.26533	37956498
0.26600	36869100
0.26667	35811226
0.26733	34782178
0.26800	33781269
0.26867	32807826
0.26933	31861184
0.27000	30940693
0.27067	30045711
0.27133	29175609
0.27200	28329769
0.27267	27507584
0.27333	26708460
0.27400	25931815
0.27467	25177076
0.27533	24443683
0.27600	23731089
0.27667	23038754
0.27733	22366153
0.27800	21712770
0.27867	21078101
0.27933	20461653
0.28000	19862944
0.28067	19281501
0.28133	18716862
0.28200	18168579
0.28267	17636209
0.28333	17119324
0.28400	16617502
0.28467	16130333
0.28533	15657416
0.28600	15198359
0.28667	14752782
0.28733	14320310
0.28800	13900581
0.28867	13493240
0.28933	13097940
0.29000	12714344
0.29067	12342123
0.29133	11980955
0.29200	11630529
0.29267	11290541
0.29333	10960693
0.29400	10640695
0.29467	10330267
0.29533	10029133
0.29600	9737026
0.29667	9453687
0.29733	9178862
0.29800	8912305
0.29867	8653775
0.29933	8403037
0.30000	8159864
0.30067	7924035
0.30133	7695334
0.30200	7473553
0.30267	7258488
0.30333	7049939
0.30400	6847714
0.30467	6651626
0.30533	6461494
0.30600	6277139
0.30667	6098391
0.30733	5925081
0.30800	5757046
0.30867	5594129
0.30933	5436175
0.31000	5283036
0.31067	5134566
0.31133	4990626
0.31200	4851078
0.31267	4715790
0.31333	4584632
0.31400	4457479
0.31467	4334209
0.31533	4214705
0.31600	4098852
0.31667	3986538
0.31733	3877655
0.31800	3772099
0.31867	3669769
0.31933	3570565
0.32000	3474391
0.32067	3381155
0.32133	3290765
0.32200	3203134
0.32267	3118177
0.32333	3035811
0.32400	2955957
0.32467	2878535
0.32533	2803470
0.32600	2730691
0.32667	2660124
0.32733	2591703
0.32800	2525359
0.32867	2461028
0.32933	2398648
0.33000	2338157
0.33067	2279498
0.33133	2222613
0.33200	2167445
0.33267	2113943
0.33333	2062053
0.33400	2011725
0.33467	1962909
0.33533	1915559
0.33600	1869629
0.33667	1825074
0.33733	1781851
0.33800	1739918
0.33867	1699235
0.33933	1659763
0.34000	1621464
0.34067	1584300
0.34133	1548237
0.34200	1513239
0.34267	1479273
0.34333	1446306
0.34400	1414308
0.34467	1383248
0.34533	1353096
0.34600	1323824
0.34667	1295405
0.34733	1267811
0.34800	1241016
0.34867	1214995
0.34933	1189725
0.35000	1165181
0.35067	1141341
0.35133	1118182
0.35200	1095683
0.35267	1073822
0.35333	1052580
0.35400	1031937
0.35467	1011874
0.35533	992373
0.35600	973416
0.35667	954987
0.35733	937068
0.35800	919644
0.35867	902699
0.35933	886219
0.36000	870188
0.36067	854593
0.36133	839420
0.36200	824656
0.36267	810289
0.36333	796306
0.36400	782694
0.36467	769443
0.36533	756541
0.36600	743978
0.36667	731742
0.36733	719824
0.36800	708214
0.36867	696903
0.36933	685882
0.37000	675142
0.37067	664673
0.37133	654468
0.37200	644519
0.37267	634818
0.37333	625356
0.37400	616128
0.37467	607126
0.37533	598343
0.37600	589772
0.37667	581406
0.37733	573241
0.37800	565269
0.37867	557486
0.37933	549884
0.38000	542459
0.38067	535206
0.38133	528120
0.38200	521195
0.38267	514427
0.38333	507812
0.38400	501344
0.38467	495020
0.38533	488836
0.38600	482787
0.38667	476869
0.38733	471080
0.38800	465414
0.38867	459869
0.38933	454441
0.39000	449128
0.39067	443925
0.39133	438829
0.39200	433838
0.39267	428948
0.39333	424157
0.39400	419462
0.39467	414859
0.39533	410348
0.39600	405924
0.39667	401586
0.39733	397332
0.39800	393159
0.39867	389064
0.39933	385046
0.40000	381104
0.40067	377234
0.40133	373435
0.40200	369704
0.40267	366041
0.40333	362444
0.40400	358909
0.40467	355437
0.40533	352025
0.40600	348672
0.40667	345376
0.40733	342136
0.40800	338951
0.40867	335819
0.40933	332738
0.41000	329709
0.41067	326729
0.41133	323797
0.41200	320913
0.41267	318074
0.41333	315281
0.41400	312531
0.41467	309825
0.41533	307161
0.41600	304537
0.41667	301953
0.41733	299409
0.41800	296903
0.41867	294435
0.41933	292004
0.42000	289610
0.42067	287251
0.42133	284927
0.42200	282637
0.42267	280382
0.42333	278159
0.42400	275969
0.42467	273810
0.42533	271682
0.42600	269583
0.42667	267513
0.42733	265472
0.42800	263457
0.42867	261470
0.42933	259508
0.43000	257571
0.43067	255658
0.43133	253770
0.43200	251905
0.43267	250063
0.43333	248245
0.43400	246448
0.43467	244673
0.43533	242920
0.43600	241188
0.43667	239476
0.43733	237785
0.43800	236114
0.43867	234462
0.43933	232829
0.44000	231216
0.44067	229620
0.44133	228042
0.44200	226483
0.44267	224940
0.44333	223414
0.44400	221906
0.44467	220413
0.44533	218937
0.44600	217477
0.44667	216032
0.44733	214603
0.44800	213189
0.44867	211789
0.44933	210404
0.45000	209034
0.45067	207677
0.45133	206335
0.45200	205006
0.45267	203691
0.45333	202390
0.45400	201102
0.45467	199827
0.45533	198565
0.45600	197315
0.45667	196078
0.45733	194853
0.45800	193640
0.45867	192439
0.45933	191250
0.46000	190072
0.46067	188905
0.46133	187751
0.46200	186607
0.46267	185475
0.46333	184353
0.46400	183243
0.46467	182144
0.46533	181055
0.46600	179978
0.46667	178911
0.46733	177855
0.46800	176809
0.46867	175775
0.46933	174751
0.47000	173737
0.47067	172734
0.47133	171741
0.47200	170758
0.47267	169784
0.47333	168821
0.47400	167866
0.47467	166922
0.47533	165986
0.47600	165058
0.47667	164139
0.47733	163229
0.47800	162327
0.47867	161433
0.47933	160547
0.48000	159669
0.48067	158798
0.48133	157935
0.48200	157079
0.48267	156230
0.48333	155388
0.48400	154553
0.48467	153724
0.48533	152903
0.48600	152088
0.48667	151280
0.48733	150478
0.48800	149683
0.48867	148894
0.48933	148111
0.49000	147334
0.49067	146564
0.49133	145799
0.49200	145041
0.49267	144288
0.49333	143542
0.49400	142801
0.49467	142066
0.49533	141337
0.49600	140614
0.49667	139897
0.49733	139185
0.49800	138478
0.49867	137777
0.49933	137082
0.50000	136393
0.50067	135708
0.50133	135029
0.50200	134355
0.50267	133687
0.50333	133024
0.50400	132365
0.50467	131712
0.50533	131063
0.50600	130420
0.50667	129782
0.50733	129149
0.50800	128521
0.50867	127897
0.50933	127278
0.51000	126664
0.51067	126055
0.51133	125451
0.51200	124851
0.51267	124256
0.51333	123665
0.51400	123079
0.51467	122497
0.51533	121920
0.51600	121347
0.51667	120779
0.51733	120214
0.51800	119655
0.51867	119099
0.51933	118548
0.52000	118001
0.52067	117458
0.52133	116919
0.52200	116384
0.52267	115853
0.52333	115326
0.52400	114803
0.52467	114284
0.52533	113769
0.52600	113257
0.52667	112749
0.52733	112245
0.52800	111745
0.52867	111248
0.52933	110755
0.53000	110266
0.53067	109780
0.53133	109298
0.53200	108820
0.53267	108345
0.53333	107874
0.53400	107406
0.53467	106942
0.53533	106482
0.53600	106025
0.53667	105571
0.53733	105121
0.53800	104674
0.53867	104231
0.53933	103790
0.54000	103354
0.54067	102920
0.54133	102490
0.54200	102062
0.54267	101638
0.54333	101217
0.54400	100799
0.54467	100385
0.54533	99973
0.54600	99564
0.54667	99158
0.54733	98755
0.54800	98355
0.54867	97958
0.54933	97564
0.55000	97172
0.55067	96784
0.55133	96398
0.55200	96015
0.55267	95635
0.55333	95258
0.55400	94883
0.55467	94511
0.55533	94142
0.55600	93775
0.55667	93411
0.55733	93049
0.55800	92691
0.55867	92334
0.55933	91980
0.56000	91629
0.56067	91280
0.56133	90934
0.56200	90590
0.56267	90249
0.56333	89910
0.56400	89573
0.56467	89238
0.56533	88906
0.56600	88576
0.56667	88248
0.56733	87923
0.56800	87599
0.56867	87278
0.56933	86959
0.57000	86643
0.57067	86328
0.57133	86016
0.57200	85705
0.57267	85397
0.57333	85091
0.57400	84787
0.57467	84485
0.57533	84185
0.57600	83886
0.57667	83590
0.57733	83296
0.57800	83004
0.57867	82713
0.57933	82425
0.58000	82138
0.58067	81853
0.58133	81570
0.58200	81289
0.58267	81010
0.58333	80733
0.58400	80458
0.58467	80184
0.58533	79913
0.58600	79644
0.58667	79377
0.58733	79112
0.58800	78849
0.58867	78588
0.58933	78329
0.59000	78073
0.59067	77818
0.59133	77565
0.59200	77315
0.59267	77067
0.59333	76820
0.59400	76576
0.59467	76334
0.59533	76093
0.59600	75854
0.59667	75617
0.59733	75382
0.59800	75148
0.59867	74916
0.59933	74685
0.60000	74455
0.60067	74227
0.60133	74000
0.60200	73775
0.60267	73551
0.60333	73328
0.60400	73106
0.60467	72886
0.60533	72667
0.60600	72449
0.60667	72232
0.60733	72017
0.60800	71802
0.60867	71588
0.60933	71376
0.61000	71164
0.61067	70954
0.61133	70744
0.61200	70536
0.61267	70329
0.61333	70122
0.61400	69917
0.61467	69713
0.61533	69509
0.61600	69307
0.61667	69106
0.61733	68905
0.61800	68706
0.61867	68508
0.61933	68310
0.62000	68114
0.62067	67919
0.62133	67724
0.62200	67531
0.62267	67339
0.62333	67147
0.62400	66957
0.62467	66769
0.62533	66581
0.62600	66394
0.62667	66208
0.62733	66023
0.62800	65839
0.62867	65657
0.62933	65475
0.63000	65294
0.63067	65114
0.63133	64935
0.63200	64756
0.63267	64579
0.63333	64402
0.63400	64227
0.63467	64052
0.63533	63877
0.63600	63704
0.63667	63531
0.63733	63360
0.63800	63188
0.63867	63018
0.63933	62848
0.64000	62679
0.64067	62511
0.64133	62343
0.64200	62176
0.64267	62010
0.64333	61844
0.64400	61679
0.64467	61515
0.64533	61351
0.64600	61188
0.64667	61026
0.64733	60864
0.64800	60703
0.64867	60543
0.64933	60383
0.65000	60224
0.65067	60065
0.65133	59907
0.65200	59750
0.65267	59593
0.65333	59437
0.65400	59282
0.65467	59128
0.65533	58974
0.65600	58820
0.65667	58668
0.65733	58516
0.65800	58364
0.65867	58213
0.65933	58063
0.66000	57914
0.66067	57765
0.66133	57617
0.66200	57469
0.66267	57322
0.66333	57176
0.66400	57031
0.66467	56886
0.66533	56741
0.66600	56598
0.66667	56455
0.66733	56313
0.66800	56171
0.66867	56030
0.66933	55890
0.67000	55751
0.67067	55612
0.67133	55474
0.67200	55336
0.67267	55199
0.67333	55063
0.67400	54928
0.67467	54793
0.67533	54659
0.67600	54525
0.67667	54392
0.67733	54260
0.67800	54129
0.67867	53998
0.67933	53867
0.68000	53737
0.68067	53608
0.68133	53480
0.68200	53352
0.68267	53225
0.68333	53098
0.68400	52972
0.68467	52847
0.68533	52722
0.68600	52598
0.68667	52474
0.68733	52351
0.68800	52229
0.68867	52107
0.68933	51986
0.69000	51865
0.69067	51745
0.69133	51626
0.69200	51507
0.69267	51388
0.69333	51271
0.69400	51153
0.69467	51037
0.69533	50921
0.69600	50806
0.69667	50692
0.69733	50579
0.69800	50467
0.69867	50356
0.69933	50245
0.70000	50135
0.70067	50026
0.70133	49918
0.70200	49810
0.70267	49704
0.70333	49598
0.70400	49492
0.70467	49388
0.70533	49284
0.70600	49181
0.70667	49078
0.70733	48976
0.70800	48875
0.70867	48774
0.70933	48674
0.71000	48574
0.71067	48476
0.71133	48377
0.71200	48280
0.71267	48183
0.71333	48088
0.71400	47993
0.71467	47899
0.71533	47805
0.71600	47713
0.71667	47623
0.71733	47533
0.71800	47445
0.71867	47358
0.71933	47273
0.72000	47190
0.72067	47108
0.72133	47028
0.72200	46949
0.72267	46872
0.72333	46797
0.72400	46724
0.72467	46652
0.72533	46581
0.72600	46511
0.72667	46442
0.72733	46375
0.72800	46307
0.72867	46241
0.72933	46174
0.73000	46108
0.73067	46041
0.73133	45974
0.73200	45907
0.73267	45840
0.73333	45772
0.73400	45704
0.73467	45635
0.73533	45566
0.73600	45496
0.73667	45426
0.73733	45354
0.73800	45283
0.73867	45210
0.73933	45137
0.74000	45063
0.74067	44989
0.74133	44914
0.74200	44839
0.74267	44763
0.74333	44687
0.74400	44610
0.74467	44533
0.74533	44456
0.74600	44378
0.74667	44300
0.74733	44222
0.74800	44144
0.74867	44065
0.74933	43986
0.75000	43906
0.75067	43827
0.75133	43747
0.75200	43667
0.75267	43588
0.75333	43508
0.75400	43428
0.75467	43348
0.75533	43267
0.75600	43187
0.75667	43107
0.75733	43026
0.75800	42946
0.75867	42865
0.75933	42785
0.76000	42704
0.76067	42623
0.76133	42542
0.76200	42460
0.76267	42379
0.76333	42297
0.76400	42215
0.76467	42133
0.76533	42051
0.76600	41969
0.76667	41887
0.76733	41804
0.76800	41721
0.76867	41639
0.76933	41556
0.77000	41473
0.77067	41390
0.77133	41307
0.77200	41224
0.77267	41141
0.77333	41058
0.77400	40975
0.77467	40893
0.77533	40810
0.77600	40727
0.77667	40644
0.77733	40562
0.77800	40480
0.77867	40398
0.77933	40316
0.78000	40234
0.78067	40153
0.78133	40072
0.78200	39991
0.78267	39911
0.78333	39831
0.78400	39751
0.78467	39672
0.78533	39593
0.78600	39514
0.78667	39436
0.78733	39358
0.78800	39280
0.78867	39203
0.78933	39126
0.79000	39049
0.79067	38973
0.79133	38897
0.79200	38822
0.79267	38747
0.79333	38672
0.79400	38598
0.79467	38524
0.79533	38451
0.79600	38378
0.79667	38305
0.79733	38233
0.79800	38161
0.79867	38090
0.79933	38019
0.80000	37948
0.80067	37878
0.80133	37808
0.80200	37739
0.80267	37670
0.80333	37602
0.80400	37534
0.80467	37466
0.80533	37399
0.80600	37332
0.80667	37265
0.80733	37199
0.80800	37133
0.80867	37068
0.80933	37003
0.81000	36939
0.81067	36874
0.81133	36811
0.81200	36747
0.81267	36684
0.81333	36622
0.81400	36559
0.81467	36497
0.81533	36436
0.81600	36374
0.81667	36313
0.81733	36253
0.81800	36192
0.81867	36133
0.81933	36073
0.82000	36014
0.82067	35955
0.82133	35896
0.82200	35838
0.82267	35780
0.82333	35722
0.82400	35664
0.82467	35607
0.82533	35550
0.82600	35494
0.82667	35438
0.82733	35381
0.82800	35326
0.82867	35270
0.82933	35215
0.83000	35159
0.83067	35104
0.83133	35050
0.83200	34995
0.83267	34941
0.83333	34887
0.83400	34833
0.83467	34779
0.83533	34726
0.83600	34672
0.83667	34619
0.83733	34567
0.83800	34514
0.83867	34462
0.83933	34410
0.84000	34358
0.84067	34307
0.84133	34256
0.84200	34205
0.84267	34154
0.84333	34104
0.84400	34054
0.84467	34004
0.84533	33954
0.84600	33905
0.84667	33856
0.84733	33807
0.84800	33758
0.84867	33710
0.84933	33662
0.85000	33614
0.85067	33566
0.85133	33519
0.85200	33471
0.85267	33424
0.85333	33378
0.85400	33331
0.85467	33285
0.85533	33238
0.85600	33192
0.85667	33146
0.85733	33101
0.85800	33055
0.85867	33009
0.85933	32964
0.86000	32919
0.86067	32874
0.86133	32829
0.86200	32784
0.86267	32739
0.86333	32695
0.86400	32651
0.86467	32606
0.86533	32562
0.86600	32519
0.86667	32475
0.86733	32431
0.86800	32388
0.86867	32344
0.86933	32301
0.87000	32258
0.87067	32215
0.87133	32172
0.87200	32129
0.87267	32086
0.87333	32044
0.87400	32002
0.87467	31959
0.87533	31917
0.87600	31875
0.87667	31833
0.87733	31791
0.87800	31749
0.87867	31707
0.87933	31666
0.88000	31624
0.88067	31583
0.88133	31542
0.88200	31500
0.88267	31459
0.88333	31418
0.88400	31378
0.88467	31337
0.88533	31296
0.88600	31255
0.88667	31215
0.88733	31174
0.88800	31134
0.88867	31093
0.88933	31053
0.89000	31012
0.89067	30972
0.89133	30932
0.89200	30891
0.89267	30851
0.89333	30811
0.89400	30771
0.89467	30731
0.89533	30691
0.89600	30652
0.89667	30612
0.89733	30572
0.89800	30533
0.89867	30493
0.89933	30454
0.90000	30414
0.90067	30375
0.90133	30336
0.90200	30297
0.90267	30258
0.90333	30219
0.90400	30181
0.90467	30142
0.90533	30103
0.90600	30065
0.90667	30027
0.90733	29988
0.90800	29950
0.90867	29912
0.90933	29874
0.91000	29836
0.91067	29798
0.91133	29760
0.91200	29722
0.91267	29684
0.91333	29646
0.91400	29609
0.91467	29571
0.91533	29534
0.91600	29496
0.91667	29459
0.91733	29422
0.91800	29385
0.91867	29348
0.91933	29311
0.92000	29274
0.92067	29238
0.92133	29201
0.92200	29164
0.92267	29128
0.92333	29091
0.92400	29055
0.92467	29019
0.92533	28982
0.92600	28946
0.92667	28910
0.92733	28874
0.92800	28838
0.92867	28803
0.92933	28767
0.93000	28731
0.93067	28696
0.93133	28661
0.93200	28626
0.93267	28591
0.93333	28556
0.93400	28521
0.93467	28487
0.93533	28452
0.93600	28418
0.93667	28384
0.93733	28350
0.93800	28316
0.93867	28283
0.93933	28249
0.94000	28216
0.94067	28183
0.94133	28150
0.94200	28117
0.94267	28085
0.94333	28053
0.94400	28020
0.94467	27988
0.94533	27957
0.94600	27925
0.94667	27894
0.94733	27863
0.94800	27832
0.94867	27801
0.94933	27770
0.95000	27739
0.95067	27709
0.95133	27678
0.95200	27648
0.95267	27618
0.95333	27588
0.95400	27557
0.95467	27527
0.95533	27498
0.95600	27468
0.95667	27438
0.95733	27408
0.95800	27379
0.95867	27349
0.95933	27320
0.96000	27290
0.96067	27261
0.96133	27231
0.96200	27202
0.96267	27172
0.96333	27143
0.96400	27113
0.96467	27084
0.96533	27054
0.96600	27025
0.96667	26995
0.96733	26965
0.96800	26936
0.96867	26906
0.96933	26877
0.97000	26847
0.97067	26817
0.97133	26788
0.97200	26758
0.97267	26729
0.97333	26699
0.97400	26670
0.97467	26640
0.97533	26610
0.97600	26581
0.97667	26552
0.97733	26522
0.97800	26493
0.97867	26464
0.97933	26434
0.98000	26405
0.98067	26376
0.98133	26346
0.98200	26317
0.98267	26288
0.98333	26259
0.98400	26230
0.98467	26201
0.98533	26172
0.98600	26143
0.98667	26114
0.98733	26085
0.98800	26056
0.98867	26028
0.98933	25999
0.99000	25970
0.99067	25941
0.99133	25913
0.99200	25884
0.99267	25856
0.99333	25827
0.99400	25799
0.99467	25770
0.99533	25742
0.99600	25714
0.99667	25686
0.99733	25658
0.99800	25630
0.99867	25602
0.99933	25574
1.00000	25546
1.00067	25518
1.00133	25490
1.00200	25463
1.00267	25435
1.00333	25408
1.00400	25380
1.00467	25353
1.00533	25325
1.00600	25298
1.00667	25270
1.00733	25243
1.00800	25216
1.00867	25189
1.00933	25162
1.01000	25135
1.01067	25108
1.01133	25081
1.01200	25055
1.01267	25028
1.01333	25001
1.01400	24975
1.01467	24949
1.01533	24922
1.01600	24896
1.01667	24870
1.01733	24844
1.01800	24818
1.01867	24792
1.01933	24766
1.02000	24740
1.02067	24714
1.02133	24689
1.02200	24663
1.02267	24637
1.02333	24612
1.02400	24587
1.02467	24562
1.02533	24537
1.02600	24512
1.02667	24488
1.02733	24463
1.02800	24439
1.02867	24414
1.02933	24390
1.03000	24366
1.03067	24342
1.03133	24319
1.03200	24295
1.03267	24271
1.03333	24248
1.03400	24225
1.03467	24201
1.03533	24178
1.03600	24155
1.03667	24132
1.03733	24109
1.03800	24086
1.03867	24064
1.03933	24041
1.04000	24018
1.04067	23996
1.04133	23974
1.04200	23951
1.04267	23929
1.04333	23907
1.04400	23885
1.04467	23862
1.04533	23840
1.04600	23818
1.04667	23796
1.04733	23774
1.04800	23752
1.04867	23730
1.04933	23708
1.05000	23687
1.05067	23665
1.05133	23643
1.05200	23621
1.05267	23599
1.05333	23577
1.05400	23556
1.05467	23534
1.05533	23512
1.05600	23490
1.05667	23469
1.05733	23447
1.05800	23425
1.05867	23403
1.05933	23381
1.06000	23360
1.06067	23338
1.06133	23316
1.06200	23295
1.06267	23273
1.06333	23252
1.06400	23230
1.06467	23209
1.06533	23188
1.06600	23166
1.06667	23145
1.06733	23124
1.06800	23103
1.06867	23082
1.06933	23062
1.07000	23041
1.07067	23021
1.07133	23000
1.07200	22980
1.07267	22960
1.07333	22940
1.07400	22920
1.07467	22901
1.07533	22881
1.07600	22862
1.07667	22842
1.07733	22823
1.07800	22804
1.07867	22786
1.07933	22767
1.08000	22749
1.08067	22730
1.08133	22712
1.08200	22694
1.08267	22676
1.08333	22659
1.08400	22641
1.08467	22623
1.08533	22606
1.08600	22589
1.08667	22572
1.08733	22555
1.08800	22538
1.08867	22522
1.08933	22505
1.09000	22488
1.09067	22472
1.09133	22456
1.09200	22439
1.09267	22423
1.09333	22407
1.09400	22390
1.09467	22374
1.09533	22357
1.09600	22341
1.09667	22324
1.09733	22307
1.09800	22291
1.09867	22274
1.09933	22257
1.10000	22240
1.10067	22222
1.10133	22205
1.10200	22188
1.10267	22170
1.10333	22153
1.10400	22135
1.10467	22117
1.10533	22099
1.10600	22081
1.10667	22063
1.10733	22044
1.10800	22026
1.10867	22007
1.10933	21989
1.11000	21970
1.11067	21951
1.11133	21932
1.11200	21913
1.11267	21894
1.11333	21875
1.11400	21856
1.11467	21837
1.11533	21818
1.11600	21799
1.11667	21779
1.11733	21760
1.11800	21741
1.11867	21722
1.11933	21702
1.12000	21683
1.12067	21664
1.12133	21644
1.12200	21625
1.12267	21606
1.12333	21587
1.12400	21568
1.12467	21549
1.12533	21530
1.12600	21511
1.12667	21492
1.12733	21473
1.12800	21454
1.12867	21435
1.12933	21416
1.13000	21397
1.13067	21379
1.13133	21360
1.13200	21341
1.13267	21323
1.13333	21304
1.13400	21286
1.13467	21267
1.13533	21249
1.13600	21231
1.13667	21212
1.13733	21194
1.13800	21176
1.13867	21158
1.13933	21140
1.14000	21122
1.14067	21104
1.14133	21086
1.14200	21069
1.14267	21051
1.14333	21033
1.14400	21015
1.14467	20997
1.14533	20980
1.14600	20962
1.14667	20944
1.14733	20927
1.14800	20909
1.14867	20892
1.14933	20874
1.15000	20857
1.15067	20840
1.15133	20822
1.15200	20805
1.15267	20788
1.15333	20771
1.15400	20753
1.15467	20736
1.15533	20719
1.15600	20702
1.15667	20685
1.15733	20668
1.15800	20651
1.15867	20635
1.15933	20618
1.16000	20601
1.16067	20584
1.16133	20568
1.16200	20552
1.16267	20535
1.16333	20519
1.16400	20503
1.16467	20487
1.16533	20471
1.16600	20455
1.16667	20440
1.16733	20424
1.16800	20409
1.16867	20393
1.16933	20378
1.17000	20362
1.17067	20347
1.17133	20332
1.17200	20317
1.17267	20302
1.17333	20286
1.17400	20271
1.17467	20256
1.17533	20241
1.17600	20226
1.17667	20211
1.17733	20197
1.17800	20182
1.17867	20167
1.17933	20152
1.18000	20138
1.18067	20123
1.18133	20108
1.18200	20094
1.18267	20079
1.18333	20065
1.18400	20050
1.18467	20036
1.18533	20021
1.18600	20007
1.18667	19992
1.18733	19978
1.18800	19964
1.18867	19949
1.18933	19935
1.19000	19921
1.19067	19906
1.19133	19892
1.19200	19878
1.19267	19864
1.19333	19850
1.19400	19836
1.19467	19822
1.19533	19808
1.19600	19794
1.19667	19780
1.19733	19766
1.19800	19753
1.19867	19739
1.19933	19726
1.20000	19712
1.20067	19699
1.20133	19686
1.20200	19673
1.20267	19660
1.20333	19647
1.20400	19634
1.20467	19621
1.20533	19609
1.20600	19596
1.20667	19583
1.20733	19571
1.20800	19558
1.20867	19546
1.20933	19533
1.21000	19521
1.21067	19508
1.21133	19496
1.21200	19483
1.21267	19471
1.21333	19459
1.21400	19447
1.21467	19434
1.21533	19422
1.21600	19410
1.21667	19398
1.21733	19386
1.21800	19374
1.21867	19361
1.21933	19349
1.22000	19337
1.22067	19325
1.22133	19313
1.22200	19301
1.22267	19289
1.22333	19277
1.22400	19265
1.22467	19253
1.22533	19241
1.22600	19229
1.22667	19217
1.22733	19205
1.22800	19194
1.22867	19182
1.22933	19170
1.23000	19158
1.23067	19146
1.23133	19135
1.23200	19123
1.23267	19111
1.23333	19100
1.23400	19088
1.23467	19077
1.23533	19065
1.23600	19054
1.23667	19042
1.23733	19031
1.23800	19020
1.23867	19008
1.23933	18997
1.24000	18986
1.24067	18974
1.24133	18963
1.24200	18952
1.24267	18941
1.24333	18930
1.24400	18919
1.24467	18908
1.24533	18898
1.24600	18887
1.24667	18876
1.24733	18866
1.24800	18855
1.24867	18845
1.24933	18835
1.25000	18824
1.25067	18814
1.25133	18804
1.25200	18794
1.25267	18784
1.25333	18774
1.25400	18764
1.25467	18754
1.25533	18744
1.25600	18734
1.25667	18724
1.25733	18715
1.25800	18705
1.25867	18695
1.25933	18686
1.26000	18676
1.26067	18667
1.26133	18657
1.26200	18648
1.26267	18638
1.26333	18629
1.26400	18620
1.26467	18610
1.26533	18601
1.26600	18592
1.26667	18583
1.26733	18573
1.26800	18564
1.26867	18555
1.26933	18546
1.27000	18537
1.27067	18528
1.27133	18518
1.27200	18509
1.27267	18500
1.27333	18491
1.27400	18482
1.27467	18473
1.27533	18463
1.27600	18454
1.27667	18445
1.27733	18436
1.27800	18427
1.27867	18418
1.27933	18409
1.28000	18400
1.28067	18391
1.28133	18382
1.28200	18373
1.28267	18363
1.28333	18354
1.28400	18345
1.28467	18336
1.28533	18327
1.28600	18318
1.28667	18309
1.28733	18299
1.28800	18290
1.28867	18281
1.28933	18272
1.29000	18263
1.29067	18253
1.29133	18244
1.29200	18235
1.29267	18225
1.29333	18216
1.29400	18207
1.29467	18197
1.29533	18188
1.29600	18179
1.29667	18169
1.29733	18160
1.29800	18150
1.29867	18140
1.29933	18131
1.30000	18121
1.30067	18111
1.30133	18102
1.30200	18092
1.30267	18082
1.30333	18072
1.30400	18062
1.30467	18052
1.30533	18042
1.30600	18032
1.30667	18022
1.30733	18012
1.30800	18002
1.30867	17992
1.30933	17982
1.31000	17971
1.31067	17961
1.31133	17951
1.31200	17941
1.31267	17931
1.31333	17920
1.31400	17910
1.31467	17899
1.31533	17889
1.31600	17878
1.31667	17868
1.31733	17857
1.31800	17847
1.31867	17836
1.31933	17825
1.32000	17814
1.32067	17804
1.32133	17793
1.32200	17782
1.32267	17772
1.32333	17761
1.32400	17750
1.32467	17739
1.32533	17729
1.32600	17718
1.32667	17707
1.32733	17696
1.32800	17685
1.32867	17674
1.32933	17663
1.33000	17652
1.33067	17640
1.33133	17629
1.33200	17618
1.33267	17607
1.33333	17596
1.33400	17585
1.33467	17573
1.33533	17562
1.33600	17551
1.33667	17540
1.33733	17529
1.33800	17517
1.33867	17506
1.33933	17495
1.34000	17484
1.34067	17473
1.34133	17463
1.34200	17452
1.34267	17441
1.34333	17430
1.34400	17420
1.34467	17409
1.34533	17398
1.34600	17387
1.34667	17377
1.34733	17366
1.34800	17356
1.34867	17345
1.34933	17335
1.35000	17325
1.35067	17314
1.35133	17304
1.35200	17294
1.35267	17284
1.35333	17274
1.35400	17264
1.35467	17255
1.35533	17245
1.35600	17235
1.35667	17226
1.35733	17216
1.35800	17207
1.35867	17197
1.35933	17188
1.36000	17179
1.36067	17169
1.36133	17160
1.36200	17151
1.36267	17142
1.36333	17132
1.36400	17123
1.36467	17114
1.36533	17105
1.36600	17095
1.36667	17086
1.36733	17077
1.36800	17068
1.36867	17058
1.36933	17049
1.37000	17040
1.37067	17030
1.37133	17021
1.37200	17011
1.37267	17002
1.37333	16992
1.37400	16982
1.37467	16973
1.37533	16963
1.37600	16954
1.37667	16944
1.37733	16934
1.37800	16924
1.37867	16915
1.37933	16905
1.38000	16895
1.38067	16885
1.38133	16876
1.38200	16866
1.38267	16856
1.38333	16846
1.38400	16837
1.38467	16827
1.38533	16817
1.38600	16807
1.38667	16797
1.38733	16788
1.38800	16778
1.38867	16768
1.38933	16758
1.39000	16748
1.39067	16739
1.39133	16729
1.39200	16719
1.39267	16709
1.39333	16700
1.39400	16690
1.39467	16680
1.39533	16671
1.39600	16661
1.39667	16651
1.39733	16642
1.39800	16632
1.39867	16623
1.39933	16613
1.40000	16604
1.40067	16594
1.40133	16585
1.40200	16575
1.40267	16566
1.40333	16556
1.40400	16547
1.40467	16538
1.40533	16528
1.40600	16519
1.40667	16510
1.40733	16500
1.40800	16491
1.40867	16482
1.40933	16473
1.41000	16463
1.41067	16454
1.41133	16445
1.41200	16436
1.41267	16427
1.41333	16418
1.41400	16409
1.41467	16400
1.41533	16391
1.41600	16382
1.41667	16373
1.41733	16364
1.41800	16355
1.41867	16346
1.41933	16337
1.42000	16328
1.42067	16319
1.42133	16310
1.42200	16302
1.42267	16293
1.42333	16284
1.42400	16275
1.42467	16267
1.42533	16258
1.42600	16249
1.42667	16241
1.42733	16232
1.42800	16223
1.42867	16215
1.42933	16206
1.43000	16198
1.43067	16190
1.43133	16181
1.43200	16173
1.43267	16165
1.43333	16156
1.43400	16148
1.43467	16140
1.43533	16132
1.43600	16124
1.43667	16116
1.43733	16107
1.43800	16099
1.43867	16091
1.43933	16084
1.44000	16076
1.44067	16068
1.44133	16060
1.44200	16052
1.44267	16044
1.44333	16036
1.44400	16028
1.44467	16020
1.44533	16012
1.44600	16004
1.44667	15997
1.44733	15989
1.44800	15981
1.44867	15973
1.44933	15965
1.45000	15957
1.45067	15950
1.45133	15942
1.45200	15934
1.45267	15926
1.45333	15918
1.45400	15910
1.45467	15902
1.45533	15894
1.45600	15887
1.45667	15879
1.45733	15871
1.45800	15863
1.45867	15855
1.45933	15846
1.46000	15838
1.46067	15830
1.46133	15822
1.46200	15814
1.46267	15806
1.46333	15798
1.46400	15790
1.46467	15782
1.46533	15774
1.46600	15765
1.46667	15757
1.46733	15749
1.46800	15741
1.46867	15733
1.46933	15724
1.47000	15716
1.47067	15708
1.47133	15700
1.47200	15691
1.47267	15683
1.47333	15675
1.47400	15666
1.47467	15658
1.47533	15650
1.47600	15642
1.47667	15633
1.47733	15625
1.47800	15617
1.47867	15609
1.47933	15601
1.48000	15592
1.48067	15584
1.48133	15576
1.48200	15568
1.48267	15560
1.48333	15552
1.48400	15544
1.48467	15536
1.48533	15528
1.48600	15520
1.48667	15513
1.48733	15505
1.48800	15497
1.48867	15489
1.48933	15481
1.49000	15473
1.49067	15466
1.49133	15458
1.49200	15450
1.49267	15442
1.49333	15434
1.49400	15427
1.49467	15419
1.49533	15411
1.49600	15404
1.49667	15396
1.49733	15388
1.49800	15381
1.49867	15373
1.49933	15365
1.50000	15357
1.50067	15350
1.50133	15342
1.50200	15334
1.50267	15327
1.50333	15319
1.50400	15311
1.50467	15303
1.50533	15296
1.50600	15288
1.50667	15281
1.50733	15273
1.50800	15265
1.50867	15258
1.50933	15250
1.51000	15243
1.51067	15235
1.51133	15227
1.51200	15220
1.51267	15212
1.51333	15205
1.51400	15197
1.51467	15190
1.51533	15182
1.51600	15175
1.51667	15167
1.51733	15159
1.51800	15152
1.51867	15144
1.51933	15137
1.52000	15130
1.52067	15122
1.52133	15115
1.52200	15107
1.52267	15100
1.52333	15093
1.52400	15085
1.52467	15078
1.52533	15071
1.52600	15063
1.52667	15056
1.52733	15049
1.52800	15041
1.52867	15034
1.52933	15026
1.53000	15019
1.53067	15012
1.53133	15004
1.53200	14997
1.53267	14989
1.53333	14982
1.53400	14974
1.53467	14967
1.53533	14959
1.53600	14952
1.53667	14944
1.53733	14937
1.53800	14930
1.53867	14922
1.53933	14915
1.54000	14908
1.54067	14900
1.54133	14893
1.54200	14886
1.54267	14879
1.54333	14871
1.54400	14864
1.54467	14857
1.54533	14850
1.54600	14843
1.54667	14835
1.54733	14828
1.54800	14821
1.54867	14814
1.54933	14807
1.55000	14800
1.55067	14794
1.55133	14787
1.55200	14780
1.55267	14773
1.55333	14766
1.55400	14760
1.55467	14753
1.55533	14746
1.55600	14739
1.55667	14733
1.55733	14726
1.55800	14719
1.55867	14713
1.55933	14706
1.56000	14699
1.56067	14693
1.56133	14686
1.56200	14679
1.56267	14673
1.56333	14666
1.56400	14660
1.56467	14653
1.56533	14646
1.56600	14640
1.56667	14633
1.56733	14627
1.56800	14620
1.56867	14614
1.56933	14607
1.57000	14601
1.57067	14595
1.57133	14588
1.57200	14582
1.57267	14576
1.57333	14569
1.57400	14563
1.57467	14557
1.57533	14551
1.57600	14545
1.57667	14539
1.57733	14532
1.57800	14526
1.57867	14520
1.57933	14514
1.58000	14508
1.58067	14501
1.58133	14495
1.58200	14489
1.58267	14483
1.58333	14477
1.58400	14470
1.58467	14464
1.58533	14458
1.58600	14452
1.58667	14445
1.58733	14439
1.58800	14433
1.58867	14427
1.58933	14420
1.59000	14414
1.59067	14408
1.59133	14402
1.59200	14396
1.59267	14389
1.59333	14383
1.59400	14377
1.59467	14371
1.59533	14365
1.59600	14359
1.59667	14353
1.59733	14347
1.59800	14341
1.59867	14335
1.59933	14329
1.60000	14323
1.60067	14317
1.60133	14311
1.60200	14305
1.60267	14299
1.60333	14293
1.60400	14287
1.60467	14281
1.60533	14275
1.60600	14269
1.60667	14263
1.60733	14257
1.60800	14251
1.60867	14245
1.60933	14239
1.61000	14233
1.61067	14227
1.61133	14222
1.61200	14216
1.61267	14210
1.61333	14204
1.61400	14198
1.61467	14192
1.61533	14186
1.61600	14180
1.61667	14174
1.61733	14168
1.61800	14162
1.61867	14157
1.61933	14151
1.62000	14145
1.62067	14139
1.62133	14133
1.62200	14127
1.62267	14121
1.62333	14115
1.62400	14109
1.62467	14104
1.62533	14098
1.62600	14092
1.62667	14086
1.62733	14081
1.62800	14075
1.62867	14069
1.62933	14064
1.63000	14058
1.63067	14053
1.63133	14047
1.63200	14042
1.63267	14036
1.63333	14031
1.63400	14025
1.63467	14020
1.63533	14015
1.63600	14009
1.63667	14004
1.63733	13999
1.63800	13994
1.63867	13989
1.63933	13984
1.64000	13979
1.64067	13974
1.64133	13970
1.64200	13965
1.64267	13960
1.64333	13956
1.64400	13951
1.64467	13947
1.64533	13942
1.64600	13938
1.64667	13933
1.64733	13929
1.64800	13925
1.64867	13921
1.64933	13917
1.65000	13913
1.65067	13909
1.65133	13905
1.65200	13901
1.65267	13897
1.65333	13894
1.65400	13890
1.65467	13887
1.65533	13883
1.65600	13880
1.65667	13877
1.65733	13874
1.65800	13871
1.65867	13868
1.65933	13865
1.66000	13862
1.66067	13859
1.66133	13856
1.66200	13853
1.66267	13850
1.66333	13848
1.66400	13845
1.66467	13842
1.66533	13839
1.66600	13836
1.66667	13833
1.66733	13830
1.66800	13827
1.66867	13824
1.66933	13820
1.67000	13817
1.67067	13814
1.67133	13810
1.67200	13806
1.67267	13803
1.67333	13799
1.67400	13795
1.67467	13791
1.67533	13787
1.67600	13783
1.67667	13779
1.67733	13774
1.67800	13770
1.67867	13765
1.67933	13761
1.68000	13756
1.68067	13751
1.68133	13746
1.68200	13741
1.68267	13736
1.68333	13731
1.68400	13726
1.68467	13721
1.68533	13715
1.68600	13710
1.68667	13705
1.68733	13699
1.68800	13693
1.68867	13688
1.68933	13682
1.69000	13676
1.69067	13670
1.69133	13665
1.69200	13659
1.69267	13653
1.69333	13647
1.69400	13641
1.69467	13635
1.69533	13629
1.69600	13622
1.69667	13616
1.69733	13610
1.69800	13604
1.69867	13598
1.69933	13591
1.70000	13585
1.70067	13579
1.70133	13572
1.70200	13566
1.70267	13560
1.70333	13553
1.70400	13547
1.70467	13540
1.70533	13534
1.70600	13528
1.70667	13521
1.70733	13515
1.70800	13508
1.70867	13502
1.70933	13496
1.71000	13489
1.71067	13483
1.71133	13477
1.71200	13471
1.71267	13464
1.71333	13458
1.71400	13451
1.71467	13445
1.71533	13439
1.71600	13433
1.71667	13426
1.71733	13420
1.71800	13414
1.71867	13408
1.71933	13401
1.72000	13395
1.72067	13389
1.72133	13383
1.72200	13377
1.72267	13370
1.72333	13364
1.72400	13358
1.72467	13352
1.72533	13346
1.72600	13340
1.72667	13334
1.72733	13328
1.72800	13322
1.72867	13316
1.72933	13310
1.73000	13304
1.73067	13298
1.73133	13292
1.73200	13287
1.73267	13281
1.73333	13275
1.73400	13270
1.73467	13264
1.73533	13259
1.73600	13254
1.73667	13248
1.73733	13243
1.73800	13238
1.73867	13234
1.73933	13229
1.74000	13225
1.74067	13220
1.74133	13216
1.74200	13213
1.74267	13209
1.74333	13206
1.74400	13203
1.74467	13201
1.74533	13198
1.74600	13196
1.74667	13195
1.74733	13194
1.74800	13193
1.74867	13193
1.74933	13193
1.75000	13194
1.75067	13195
1.75133	13197
1.75200	13199
1.75267	13202
1.75333	13205
1.75400	13209
1.75467	13213
1.75533	13217
1.75600	13223
1.75667	13228
1.75733	13234
1.75800	13241
1.75867	13248
1.75933	13255
1.76000	13262
1.76067	13270
1.76133	13278
1.76200	13286
1.76267	13294
1.76333	13302
1.76400	13310
1.76467	13318
1.76533	13326
1.76600	13334
1.76667	13342
1.76733	13349
1.76800	13355
1.76867	13362
1.76933	13368
1.77000	13373
1.77067	13378
1.77133	13382
1.77200	13385
1.77267	13388
1.77333	13390
1.77400	13391
1.77467	13392
1.77533	13392
1.77600	13391
1.77667	13389
1.77733	13387
1.77800	13384
1.77867	13380
1.77933	13376
1.78000	13371
1.78067	13365
1.78133	13358
1.78200	13351
1.78267	13344
1.78333	13335
1.78400	13326
1.78467	13317
1.78533	13307
1.78600	13297
1.78667	13286
1.78733	13275
1.78800	13263
1.78867	13251
1.78933	13239
1.79000	13226
1.79067	13213
1.79133	13200
1.79200	13187
1.79267	13173
1.79333	13159
1.79400	13145
1.79467	13131
1.79533	13117
1.79600	13103
1.79667	13088
1.79733	13074
1.79800	13059
1.79867	13045
1.79933	13030
1.80000	13016
1.80067	13001
1.80133	12986
1.80200	12972
1.80267	12957
1.80333	12943
1.80400	12928
1.80467	12914
1.80533	12899
1.80600	12884
1.80667	12870
1.80733	12856
1.80800	12841
1.80867	12827
1.80933	12813
1.81000	12798
1.81067	12784
1.81133	12770
1.81200	12756
1.81267	12742
1.81333	12728
1.81400	12715
1.81467	12701
1.81533	12687
1.81600	12674
1.81667	12660
1.81733	12647
1.81800	12634
1.81867	12621
1.81933	12608
1.82000	12595
1.82067	12582
1.82133	12569
1.82200	12557
1.82267	12544
1.82333	12532
1.82400	12519
1.82467	12507
1.82533	12495
1.82600	12483
1.82667	12471
1.82733	12459
1.82800	12447
1.82867	12435
1.82933	12424
1.83000	12412
1.83067	12401
1.83133	12390
1.83200	12378
1.83267	12367
1.83333	12356
1.83400	12345
1.83467	12334
1.83533	12323
1.83600	12313
1.83667	12302
1.83733	12291
1.83800	12281
1.83867	12270
1.83933	12260
1.84000	12249
1.84067	12239
1.84133	12228
1.84200	12218
1.84267	12208
1.84333	12198
1.84400	12188
1.84467	12178
1.84533	12168
1.84600	12158
1.84667	12149
1.84733	12139
1.84800	12130
1.84867	12120
1.84933	12111
1.85000	12101
1.85067	12092
1.85133	12083
1.85200	12074
1.85267	12065
1.85333	12056
1.85400	12047
1.85467	12038
1.85533	12029
1.85600	12020
1.85667	12011
1.85733	12003
1.85800	11994
1.85867	11986
1.85933	11977
1.86000	11968
1.86067	11960
1.86133	11952
1.86200	11943
1.86267	11935
1.86333	11927
1.86400	11918
1.86467	11910
1.86533	11902
1.86600	11894
1.86667	11886
1.86733	11878
1.86800	11870
1.86867	11862
1.86933	11854
1.87000	11846
1.87067	11838
1.87133	11831
1.87200	11823
1.87267	11816
1.87333	11808
1.87400	11801
1.87467	11793
1.87533	11786
1.87600	11778
1.87667	11771
1.87733	11764
1.87800	11756
1.87867	11749
1.87933	11742
1.88000	11735
1.88067	11727
1.88133	11720
1.88200	11713
1.88267	11705
1.88333	11698
1.88400	11691
1.88467	11684
1.88533	11676
1.88600	11669
1.88667	11662
1.88733	11655
1.88800	11648
1.88867	11641
1.88933	11633
1.89000	11626
1.89067	11619
1.89133	11612
1.89200	11605
1.89267	11598
1.89333	11591
1.89400	11584
1.89467	11577
1.89533	11570
1.89600	11563
1.89667	11557
1.89733	11550
1.89800	11543
1.89867	11536
1.89933	11530
1.90000	11523
1.90067	11516
1.90133	11510
1.90200	11503
1.90267	11497
1.90333	11490
1.90400	11484
1.90467	11478
1.90533	11472
1.90600	11466
1.90667	11460
1.90733	11454
1.90800	11448
1.90867	11442
1.90933	11436
1.91000	11431
1.91067	11425
1.91133	11420
1.91200	11414
1.91267	11409
1.91333	11403
1.91400	11398
1.91467	11393
1.91533	11388
1.91600	11383
1.91667	11378
1.91733	11374
1.91800	11369
1.91867	11364
1.91933	11360
1.92000	11355
1.92067	11351
1.92133	11346
1.92200	11342
1.92267	11338
1.92333	11333
1.92400	11329
1.92467	11325
1.92533	11320
1.92600	11316
1.92667	11312
1.92733	11308
1.92800	11303
1.92867	11299
1.92933	11295
1.93000	11290
1.93067	11286
1.93133	11281
1.93200	11277
1.93267	11273
1.93333	11268
1.93400	11264
1.93467	11259
1.93533	11254
1.93600	11250
1.93667	11245
1.93733	11240
1.93800	11235
1.93867	11231
1.93933	11226
1.94000	11221
1.94067	11216
1.94133	11211
1.94200	11206
1.94267	11201
1.94333	11197
1.94400	11192
1.94467	11186
1.94533	11181
1.94600	11176
1.94667	11171
1.94733	11166
1.94800	11161
1.94867	11155
1.94933	11150
1.95000	11145
1.95067	11139
1.95133	11134
1.95200	11129
1.95267	11123
1.95333	11118
1.95400	11112
1.95467	11107
1.95533	11102
1.95600	11096
1.95667	11091
1.95733	11085
1.95800	11080
1.95867	11074
1.95933	11069
1.96000	11063
1.96067	11058
1.96133	11053
1.96200	11047
1.96267	11042
1.96333	11036
1.96400	11031
1.96467	11026
1.96533	11020
1.96600	11015
1.96667	11010
1.96733	11005
1.96800	10999
1.96867	10994
1.96933	10989
1.97000	10984
1.97067	10979
1.97133	10974
1.97200	10969
1.97267	10964
1.97333	10959
1.97400	10954
1.97467	10949
1.97533	10944
1.97600	10939
1.97667	10935
1.97733	10930
1.97800	10925
1.97867	10920
1.97933	10916
1.98000	10911
1.98067	10906
1.98133	10902
1.98200	10897
1.98267	10893
1.98333	10888
1.98400	10884
1.98467	10879
1.98533	10875
1.98600	10871
1.98667	10866
1.98733	10862
1.98800	10857
1.98867	10853
1.98933	10849
1.99000	10845
1.99067	10840
1.99133	10836
1.99200	10832
1.99267	10828
1.99333	10824
1.99400	10820
1.99467	10816
1.99533	10812
1.99600	10808
1.99667	10804
1.99733	10800
1.99800	10796
1.99867	10792
1.99933	10788
2.00000	10784
2.00067	10780
2.00133	10776
2.00200	10773
2.00267	10769
2.00333	10765
2.00400	10761
2.00467	10757
2.00533	10753
2.00600	10749
2.00667	10746
2.00733	10742
2.00800	10738
2.00867	10734
2.00933	10730
2.01000	10726
2.01067	10722
2.01133	10718
2.01200	10714
2.01267	10710
2.01333	10706
2.01400	10702
2.01467	10699
2.01533	10695
2.01600	10691
2.01667	10687
2.01733	10683
2.01800	10678
2.01867	10674
2.01933	10670
2.02000	10666
2.02067	10662
2.02133	10658
2.02200	10654
2.02267	10650
2.02333	10645
2.02400	10641
2.02467	10637
2.02533	10633
2.02600	10629
2.02667	10625
2.02733	10620
2.02800	10616
2.02867	10612
2.02933	10608
2.03000	10604
2.03067	10600
2.03133	10596
2.03200	10592
2.03267	10588
2.03333	10584
2.03400	10580
2.03467	10575
2.03533	10571
2.03600	10567
2.03667	10563
2.03733	10559
2.03800	10555
2.03867	10550
2.03933	10546
2.04000	10542
2.04067	10538
2.04133	10533
2.04200	10529
2.04267	10525
2.04333	10520
2.04400	10516
2.04467	10512
2.04533	10507
2.04600	10503
2.04667	10499
2.04733	10494
2.04800	10490
2.04867	10486
2.04933	10482
2.05000	10477
2.05067	10473
2.05133	10469
2.05200	10465
2.05267	10460
2.05333	10456
2.05400	10452
2.05467	10448
2.05533	10443
2.05600	10439
2.05667	10435
2.05733	10431
2.05800	10427
2.05867	10423
2.05933	10418
2.06000	10414
2.06067	10410
2.06133	10406
2.06200	10402
2.06267	10398
2.06333	10394
2.06400	10390
2.06467	10386
2.06533	10382
2.06600	10378
2.06667	10374
2.06733	10370
2.06800	10366
2.06867	10362
2.06933	10358
2.07000	10354
2.07067	10349
2.07133	10345
2.07200	10341
2.07267	10337
2.07333	10333
2.07400	10329
2.07467	10325
2.07533	10321
2.07600	10317
2.07667	10312
2.07733	10308
2.07800	10304
2.07867	10300
2.07933	10296
2.08000	10292
2.08067	10288
2.08133	10284
2.08200	10280
2.08267	10276
2.08333	10272
2.08400	10267
2.08467	10263
2.08533	10259
2.08600	10255
2.08667	10251
2.08733	10247
2.08800	10243
2.08867	10239
2.08933	10235
2.09000	10231
2.09067	10227
2.09133	10223
2.09200	10219
2.09267	10215
2.09333	10211
2.09400	10207
2.09467	10204
2.09533	10200
2.09600	10196
2.09667	10192
2.09733	10188
2.09800	10185
2.09867	10181
2.09933	10177
2.10000	10174
2.10067	10170
2.10133	10166
2.10200	10163
2.10267	10159
2.10333	10156
2.10400	10152
2.10467	10149
2.10533	10145
2.10600	10142
2.10667	10138
2.10733	10135
2.10800	10132
2.10867	10128
2.10933	10125
2.11000	10122
2.11067	10118
2.11133	10115
2.11200	10112
2.11267	10108
2.11333	10105
2.11400	10102
2.11467	10099
2.11533	10095
2.11600	10092
2.11667	10089
2.11733	10085
2.11800	10082
2.11867	10078
2.11933	10075
2.12000	10071
2.12067	10068
2.12133	10064
2.12200	10061
2.12267	10057
2.12333	10054
2.12400	10051
2.12467	10047
2.12533	10043
2.12600	10040
2.12667	10036
2.12733	10033
2.12800	10029
2.12867	10025
2.12933	10022
2.13000	10018
2.13067	10014
2.13133	10011
2.13200	10007
2.13267	10003
2.13333	10000
2.13400	9996
2.13467	9992
2.13533	9989
2.13600	9985
2.13667	9981
2.13733	9977
2.13800	9974
2.13867	9970
2.13933	9966
2.14000	9962
2.14067	9958
2.14133	9955
2.14200	9951
2.14267	9947
2.14333	9943
2.14400	9940
2.14467	9936
2.14533	9932
2.14600	9928
2.14667	9924
2.14733	9921
2.14800	9917
2.14867	9913
2.14933	9909
2.15000	9905
2.15067	9902
2.15133	9898
2.15200	9894
2.15267	9890
2.15333	9887
2.15400	9883
2.15467	9879
2.15533	9875
2.15600	9872
2.15667	9868
2.15733	9864
2.15800	9860
2.15867	9857
2.15933	9853
2.16000	9849
2.16067	9845
2.16133	9842
2.16200	9838
2.16267	9834
2.16333	9830
2.16400	9827
2.16467	9823
2.16533	9819
2.16600	9816
2.16667	9812
2.16733	9808
2.16800	9805
2.16867	9801
2.16933	9798
2.17000	9794
2.17067	9790
2.17133	9787
2.17200	9783
2.17267	9780
2.17333	9776
2.17400	9773
2.17467	9769
2.17533	9766
2.17600	9762
2.17667	9759
2.17733	9756
2.17800	9752
2.17867	9749
2.17933	9745
2.18000	9742
2.18067	9738
2.18133	9735
2.18200	9732
2.18267	9728
2.18333	9725
2.18400	9721
2.18467	9718
2.18533	9715
2.18600	9711
2.18667	9708
2.18733	9704
2.18800	9701
2.18867	9698
2.18933	9694
2.19000	9691
2.19067	9688
2.19133	9684
2.19200	9681
2.19267	9678
2.19333	9675
2.19400	9671
2.19467	9668
2.19533	9665
2.19600	9662
2.19667	9659
2.19733	9655
2.19800	9652
2.19867	9649
2.19933	9646
2.20000	9643
2.20067	9640
2.20133	9637
2.20200	9634
2.20267	9630
2.20333	9627
2.20400	9624
2.20467	9621
2.20533	9618
2.20600	9615
2.20667	9612
2.20733	9609
2.20800	9606
2.20867	9603
2.20933	9600
2.21000	9597
2.21067	9594
2.21133	9591
2.21200	9588
2.21267	9585
2.21333	9582
2.21400	9579
2.21467	9576
2.21533	9573
2.21600	9570
2.21667	9567
2.21733	9564
2.21800	9561
2.21867	9558
2.21933	9555
2.22000	9551
2.22067	9548
2.22133	9545
2.22200	9542
2.22267	9539
2.22333	9536
2.22400	9533
2.22467	9530
2.22533	9527
2.22600	9524
2.22667	9521
2.22733	9518
2.22800	9515
2.22867	9512
2.22933	9509
2.23000	9506
2.23067	9503
2.23133	9500
2.23200	9497
2.23267	9495
2.23333	9492
2.23400	9489
2.23467	9486
2.23533	9483
2.23600	9480
2.23667	9478
2.23733	9475
2.23800	9472
2.23867	9469
2.23933	9467
2.24000	9464
2.24067	9461
2.24133	9459
2.24200	9456
2.24267	9454
2.24333	9451
2.24400	9448
2.24467	9446
2.24533	9443
2.24600	9441
2.24667	9439
2.24733	9437
2.24800	9434
2.24867	9432
2.24933	9430
2.25000	9428
2.25067	9426
2.25133	9424
2.25200	9422
2.25267	9420
2.25333	9418
2.25400	9416
2.25467	9414
2.25533	9412
2.25600	9411
2.25667	9409
2.25733	9407
2.25800	9406
2.25867	9404
2.25933	9402
2.26000	9401
2.26067	9399
2.26133	9397
2.26200	9396
2.26267	9394
2.26333	9393
2.26400	9391
2.26467	9390
2.26533	9388
2.26600	9386
2.26667	9385
2.26733	9383
2.26800	9382
2.26867	9380
2.26933	9379
2.27000	9377
2.27067	9375
2.27133	9374
2.27200	9372
2.27267	9371
2.27333	9369
2.27400	9367
2.27467	9366
2.27533	9364
2.27600	9362
2.27667	9361
2.27733	9359
2.27800	9357
2.27867	9355
2.27933	9353
2.28000	9351
2.28067	9349
2.28133	9347
2.28200	9345
2.28267	9343
2.28333	9341
2.28400	9339
2.28467	9337
2.28533	9335
2.28600	9332
2.28667	9330
2.28733	9328
2.28800	9326
2.28867	9324
2.28933	9322
2.29000	9320
2.29067	9318
2.29133	9316
2.29200	9314
2.29267	9312
2.29333	9310
2.29400	9308
2.29467	9306
2.29533	9304
2.29600	9302
2.29667	9300
2.29733	9298
2.29800	9296
2.29867	9294
2.29933	9292
2.30000	9290
2.30067	9288
2.30133	9286
2.30200	9284
2.30267	9283
2.30333	9281
2.30400	9279
2.30467	9278
2.30533	9276
2.30600	9274
2.30667	9273
2.30733	9272
2.30800	9270
2.30867	9269
2.30933	9268
2.31000	9267
2.31067	9266
2.31133	9265
2.31200	9264
2.31267	9263
2.31333	9262
2.31400	9261
2.31467	9261
2.31533	9260
2.31600	9260
2.31667	9259
2.31733	9259
2.31800	9259
2.31867	9258
2.31933	9258
2.32000	9258
2.32067	9258
2.32133	9258
2.32200	9258
2.32267	9258
2.32333	9258
2.32400	9259
2.32467	9259
2.32533	9260
2.32600	9260
2.32667	9261
2.32733	9261
2.32800	9262
2.32867	9263
2.32933	9263
2.33000	9264
2.33067	9265
2.33133	9266
2.33200	9267
2.33267	9268
2.33333	9269
2.33400	9270
2.33467	9272
2.33533	9273
2.33600	9274
2.33667	9275
2.33733	9277
2.33800	9278
2.33867	9279
2.33933	9281
2.34000	9282
2.34067	9283
2.34133	9285
2.34200	9286
2.34267	9288
2.34333	9289
2.34400	9290
2.34467	9292
2.34533	9293
2.34600	9295
2.34667	9296
2.34733	9298
2.34800	9299
2.34867	9301
2.34933	9302
2.35000	9304
2.35067	9306
2.35133	9307
2.35200	9309
2.35267	9311
2.35333	9313
2.35400	9315
2.35467	9318
2.35533	9320
2.35600	9322
2.35667	9325
2.35733	9327
2.35800	9330
2.35867	9332
2.35933	9335
2.36000	9338
2.36067	9340
2.36133	9343
2.36200	9346
2.36267	9349
2.36333	9352
2.36400	9355
2.36467	9358
2.36533	9361
2.36600	9363
2.36667	9366
2.36733	9369
2.36800	9372
2.36867	9374
2.36933	9377
2.37000	9379
2.37067	9382
2.37133	9384
2.37200	9386
2.37267	9388
2.37333	9390
2.37400	9392
2.37467	9393
2.37533	9395
2.37600	9396
2.37667	9397
2.37733	9398
2.37800	9399
2.37867	9399
2.37933	9399
2.38000	9399
2.38067	9399
2.38133	9399
2.38200	9399
2.38267	9398
2.38333	9398
2.38400	9397
2.38467	9396
2.38533	9395
2.38600	9394
2.38667	9392
2.38733	9391
2.38800	9390
2.38867	9388
2.38933	9386
2.39000	9384
2.39067	9383
2.39133	9381
2.39200	9379
2.39267	9376
2.39333	9374
2.39400	9372
2.39467	9369
2.39533	9367
2.39600	9364
2.39667	9362
2.39733	9359
2.39800	9357
2.39867	9354
2.39933	9351
2.40000	9348
2.40067	9346
2.40133	9343
2.40200	9340
2.40267	9337
2.40333	9334
2.40400	9332
2.40467	9329
2.40533	9326
2.40600	9324
2.40667	9321
2.40733	9318
2.40800	9315
2.40867	9313
2.40933	9310
2.41000	9308
2.41067	9305
2.41133	9303
2.41200	9300
2.41267	9298
2.41333	9296
2.41400	9293
2.41467	9291
2.41533	9289
2.41600	9286
2.41667	9284
2.41733	9282
2.41800	9279
2.41867	9277
2.41933	9275
2.42000	9273
2.42067	9271
2.42133	9269
2.42200	9266
2.42267	9264
2.42333	9262
2.42400	9259
2.42467	9257
2.42533	9254
2.42600	9252
2.42667	9249
2.42733	9246
2.42800	9244
2.42867	9241
2.42933	9238
2.43000	9234
2.43067	9231
2.43133	9228
2.43200	9224
2.43267	9220
2.43333	9216
2.43400	9213
2.43467	9208
2.43533	9204
2.43600	9200
2.43667	9195
2.43733	9190
2.43800	9186
2.43867	9181
2.43933	9175
2.44000	9170
2.44067	9164
2.44133	9159
2.44200	9153
2.44267	9147
2.44333	9141
2.44400	9135
2.44467	9129
2.44533	9122
2.44600	9116
2.44667	9109
2.44733	9103
2.44800	9096
2.44867	9089
2.44933	9082
2.45000	9075
2.45067	9068
2.45133	9061
2.45200	9053
2.45267	9046
2.45333	9038
2.45400	9031
2.45467	9023
2.45533	9016
2.45600	9008
2.45667	9000
2.45733	8993
2.45800	8985
2.45867	8977
2.45933	8970
2.46000	8962
2.46067	8954
2.46133	8946
2.46200	8939
2.46267	8931
2.46333	8923
2.46400	8915
2.46467	8908
2.46533	8900
2.46600	8892
2.46667	8885
2.46733	8877
2.46800	8870
2.46867	8862
2.46933	8855
2.47000	8848
2.47067	8840
2.47133	8833
2.47200	8826
2.47267	8819
2.47333	8811
2.47400	8804
2.47467	8797
2.47533	8790
2.47600	8783
2.47667	8776
2.47733	8769
2.47800	8763
2.47867	8756
2.47933	8749
2.48000	8743
2.48067	8736
2.48133	8729
2.48200	8723
2.48267	8717
2.48333	8710
2.48400	8704
2.48467	8698
2.48533	8692
2.48600	8686
2.48667	8680
2.48733	8674
2.48800	8668
2.48867	8662
2.48933	8656
2.49000	8650
2.49067	8645
2.49133	8639
2.49200	8633
2.49267	8628
2.49333	8622
2.49400	8617
2.49467	8611
2.49533	8606
2.49600	8600
2.49667	8595
2.49733	8590
2.49800	8585
2.49867	8579
2.49933	8574
2.50000	8569
2.50067	8564
2.50133	8559
2.50200	8554
2.50267	8549
2.50333	8543
2.50400	8538
2.50467	8533
2.50533	8528
2.50600	8524
2.50667	8519
2.50733	8514
2.50800	8509
2.50867	8504
2.50933	8499
2.51000	8495
2.51067	8490
2.51133	8485
2.51200	8481
2.51267	8476
2.51333	8472
2.51400	8467
2.51467	8463
2.51533	8458
2.51600	8454
2.51667	8449
2.51733	8445
2.51800	8441
2.51867	8436
2.51933	8432
2.52000	8428
2.52067	8424
2.52133	8420
2.52200	8416
2.52267	8412
2.52333	8408
2.52400	8404
2.52467	8400
2.52533	8396
2.52600	8392
2.52667	8388
2.52733	8384
2.52800	8380
2.52867	8376
2.52933	8372
2.53000	8368
2.53067	8365
2.53133	8361
2.53200	8357
2.53267	8353
2.53333	8350
2.53400	8346
2.53467	8342
2.53533	8339
2.53600	8335
2.53667	8332
2.53733	8328
2.53800	8325
2.53867	8321
2.53933	8318
2.54000	8314
2.54067	8311
2.54133	8308
2.54200	8304
2.54267	8301
2.54333	8297
2.54400	8294
2.54467	8291
2.54533	8287
2.54600	8284
2.54667	8281
2.54733	8277
2.54800	8274
2.54867	8271
2.54933	8268
2.55000	8265
2.55067	8261
2.55133	8258
2.55200	8255
2.55267	8252
2.55333	8249
2.55400	8246
2.55467	8243
2.55533	8240
2.55600	8237
2.55667	8234
2.55733	8231
2.55800	8228
2.55867	8225
2.55933	8222
2.56000	8220
2.56067	8217
2.56133	8214
2.56200	8211
2.56267	8209
2.56333	8206
2.56400	8203
2.56467	8200
2.56533	8198
2.56600	8195
2.56667	8192
2.56733	8190
2.56800	8187
2.56867	8184
2.56933	8182
2.57000	8179
2.57067	8176
2.57133	8174
2.57200	8171
2.57267	8168
2.57333	8166
2.57400	8163
2.57467	8160
2.57533	8157
2.57600	8155
2.57667	8152
2.57733	8149
2.57800	8146
2.57867	8144
2.57933	8141
2.58000	8138
2.58067	8135
2.58133	8132
2.58200	8130
2.58267	8127
2.58333	8124
2.58400	8122
2.58467	8119
2.58533	8116
2.58600	8114
2.58667	8111
2.58733	8108
2.58800	8106
2.58867	8103
2.58933	8100
2.59000	8097
2.59067	8095
2.59133	8092
2.59200	8089
2.59267	8087
2.59333	8084
2.59400	8081
2.59467	8078
2.59533	8076
2.59600	8073
2.59667	8070
2.59733	8067
2.59800	8064
2.59867	8061
2.59933	8059
2.60000	8056
2.60067	8053
2.60133	8050
2.60200	8048
2.60267	8045
2.60333	8042
2.60400	8039
2.60467	8037
2.60533	8034
2.60600	8031
2.60667	8029
2.60733	8026
2.60800	8023
2.60867	8021
2.60933	8018
2.61000	8015
2.61067	8013
2.61133	8010
2.61200	8007
2.61267	8004
2.61333	8002
2.61400	7999
2.61467	7996
2.61533	7994
2.61600	7991
2.61667	7988
2.61733	7986
2.61800	7983
2.61867	7981
2.61933	7978
2.62000	7975
2.62067	7973
2.62133	7970
2.62200	7968
2.62267	7965
2.62333	7963
2.62400	7960
2.62467	7958
2.62533	7955
2.62600	7953
2.62667	7950
2.62733	7948
2.62800	7945
2.62867	7942
2.62933	7940
2.63000	7937
2.63067	7935
2.63133	7932
2.63200	7929
2.63267	7927
2.63333	7924
2.63400	7921
2.63467	7919
2.63533	7916
2.63600	7914
2.63667	7911
2.63733	7909
2.63800	7906
2.63867	7903
2.63933	7901
2.64000	7898
2.64067	7895
2.64133	7893
2.64200	7890
2.64267	7887
2.64333	7885
2.64400	7882
2.64467	7880
2.64533	7877
2.64600	7875
2.64667	7872
2.64733	7870
2.64800	7867
2.64867	7864
2.64933	7862
2.65000	7859
2.65067	7857
2.65133	7854
2.65200	7852
2.65267	7849
2.65333	7846
2.65400	7844
2.65467	7841
2.65533	7839
2.65600	7836
2.65667	7834
2.65733	7831
2.65800	7829
2.65867	7826
2.65933	7824
2.66000	7821
2.66067	7818
2.66133	7816
2.66200	7814
2.66267	7811
2.66333	7809
2.66400	7806
2.66467	7804
2.66533	7801
2.66600	7799
2.66667	7797
2.66733	7794
2.66800	7792
2.66867	7790
2.66933	7787
2.67000	7785
2.67067	7783
2.67133	7780
2.67200	7778
2.67267	7776
2.67333	7773
2.67400	7771
2.67467	7769
2.67533	7766
2.67600	7764
2.67667	7762
2.67733	7760
2.67800	7757
2.67867	7755
2.67933	7753
2.68000	7751
2.68067	7749
2.68133	7747
2.68200	7744
2.68267	7742
2.68333	7740
2.68400	7738
2.68467	7736
2.68533	7734
2.68600	7732
2.68667	7729
2.68733	7727
2.68800	7725
2.68867	7723
2.68933	7721
2.69000	7719
2.69067	7717
2.69133	7715
2.69200	7713
2.69267	7711
2.69333	7709
2.69400	7707
2.69467	7705
2.69533	7703
2.69600	7702
2.69667	7700
2.69733	7698
2.69800	7696
2.69867	7694
2.69933	7692
2.70000	7690
2.70067	7689
2.70133	7687
2.70200	7685
2.70267	7683
2.70333	7681
2.70400	7680
2.70467	7678
2.70533	7676
2.70600	7674
2.70667	7673
2.70733	7671
2.70800	7669
2.70867	7667
2.70933	7665
2.71000	7664
2.71067	7662
2.71133	7660
2.71200	7658
2.71267	7657
2.71333	7655
2.71400	7653
2.71467	7651
2.71533	7650
2.71600	7648
2.71667	7646
2.71733	7645
2.71800	7643
2.71867	7641
2.71933	7640
2.72000	7638
2.72067	7636
2.72133	7635
2.72200	7633
2.72267	7631
2.72333	7630
2.72400	7628
2.72467	7626
2.72533	7624
2.72600	7623
2.72667	7621
2.72733	7619
2.72800	7617
2.72867	7616
2.72933	7614
2.73000	7612
2.73067	7610
2.73133	7609
2.73200	7607
2.73267	7605
2.73333	7603
2.73400	7602
2.73467	7600
2.73533	7598
2.73600	7596
2.73667	7595
2.73733	7593
2.73800	7591
2.73867	7590
2.73933	7588
2.74000	7586
2.74067	7585
2.74133	7583
2.74200	7582
2.74267	7580
2.74333	7578
2.74400	7577
2.74467	7575
2.74533	7574
2.74600	7572
2.74667	7571
2.74733	7569
2.74800	7567
2.74867	7566
2.74933	7564
2.75000	7563
2.75067	7562
2.75133	7560
2.75200	7559
2.75267	7557
2.75333	7556
2.75400	7555
2.75467	7553
2.75533	7552
2.75600	7551
2.75667	7549
2.75733	7548
2.75800	7547
2.75867	7546
2.75933	7545
2.76000	7544
2.76067	7542
2.76133	7541
2.76200	7540
2.76267	7539
2.76333	7538
2.76400	7537
2.76467	7536
2.76533	7536
2.76600	7535
2.76667	7534
2.76733	7533
2.76800	7533
2.76867	7532
2.76933	7532
2.77000	7531
2.77067	7531
2.77133	7531
2.77200	7531
2.77267	7531
2.77333	7531
2.77400	7531
2.77467	7532
2.77533	7532
2.77600	7533
2.77667	7533
2.77733	7534
2.77800	7535
2.77867	7537
2.77933	7538
2.78000	7539
2.78067	7541
2.78133	7543
2.78200	7545
2.78267	7548
2.78333	7550
2.78400	7553
2.78467	7556
2.78533	7559
2.78600	7563
2.78667	7566
2.78733	7570
2.78800	7575
2.78867	7579
2.78933	7584
2.79000	7589
2.79067	7594
2.79133	7600
2.79200	7606
2.79267	7612
2.79333	7618
2.79400	7625
2.79467	7632
2.79533	7640
2.79600	7647
2.79667	7655
2.79733	7664
2.79800	7672
2.79867	7681
2.79933	7690
2.80000	7699
2.80067	7709
2.80133	7718
2.80200	7728
2.80267	7739
2.80333	7749
2.80400	7760
2.80467	7770
2.80533	7781
2.80600	7792
2.80667	7803
2.80733	7815
2.80800	7826
2.80867	7837
2.80933	7849
2.81000	7860
2.81067	7872
2.81133	7883
2.81200	7895
2.81267	7906
2.81333	7918
2.81400	7929
2.81467	7940
2.81533	7951
2.81600	7962
2.81667	7972
2.81733	7982
2.81800	7992
2.81867	8002
2.81933	8012
2.82000	8021
2.82067	8030
2.82133	8039
2.82200	8047
2.82267	8055
2.82333	8063
2.82400	8070
2.82467	8076
2.82533	8083
2.82600	8089
2.82667	8094
2.82733	8099
2.82800	8104
2.82867	8108
2.82933	8111
2.83000	8114
2.83067	8117
2.83133	8119
2.83200	8120
2.83267	8121
2.83333	8122
2.83400	8122
2.83467	8122
2.83533	8121
2.83600	8120
2.83667	8118
2.83733	8116
2.83800	8113
2.83867	8110
2.83933	8107
2.84000	8103
2.84067	8099
2.84133	8094
2.84200	8089
2.84267	8084
2.84333	8079
2.84400	8073
2.84467	8067
2.84533	8060
2.84600	8053
2.84667	8046
2.84733	8039
2.84800	8031
2.84867	8023
2.84933	8015
2.85000	8007
2.85067	7999
2.85133	7990
2.85200	7982
2.85267	7973
2.85333	7964
2.85400	7955
2.85467	7946
2.85533	7936
2.85600	7927
2.85667	7918
2.85733	7908
2.85800	7899
2.85867	7889
2.85933	7879
2.86000	7870
2.86067	7860
2.86133	7851
2.86200	7841
2.86267	7832
2.86333	7822
2.86400	7813
2.86467	7803
2.86533	7794
2.86600	7785
2.86667	7776
2.86733	7767
2.86800	7758
2.86867	7749
2.86933	7740
2.87000	7731
2.87067	7723
2.87133	7715
2.87200	7706
2.87267	7698
2.87333	7690
2.87400	7683
2.87467	7675
2.87533	7668
2.87600	7660
2.87667	7653
2.87733	7646
2.87800	7640
2.87867	7633
2.87933	7627
2.88000	7621
2.88067	7615
2.88133	7610
2.88200	7604
2.88267	7599
2.88333	7594
2.88400	7590
2.88467	7585
2.88533	7581
2.88600	7577
2.88667	7573
2.88733	7569
2.88800	7566
2.88867	7563
2.88933	7560
2.89000	7557
2.89067	7555
2.89133	7552
2.89200	7550
2.89267	7548
2.89333	7547
2.89400	7545
2.89467	7544
2.89533	7543
2.89600	7542
2.89667	7541
2.89733	7540
2.89800	7540
2.89867	7539
2.89933	7539
2.90000	7539
2.90067	7539
2.90133	7539
2.90200	7539
2.90267	7539
2.90333	7540
2.90400	7540
2.90467	7540
2.90533	7541
2.90600	7541
2.90667	7541
2.90733	7542
2.90800	7542
2.90867	7542
2.90933	7542
2.91000	7542
2.91067	7542
2.91133	7542
2.91200	7542
2.91267	7541
2.91333	7541
2.91400	7540
2.91467	7539
2.91533	7538
2.91600	7537
2.91667	7535
2.91733	7534
2.91800	7532
2.91867	7530
2.91933	7528
2.92000	7525
2.92067	7522
2.92133	7519
2.92200	7516
2.92267	7513
2.92333	7509
2.92400	7505
2.92467	7501
2.92533	7497
2.92600	7493
2.92667	7488
2.92733	7483
2.92800	7478
2.92867	7473
2.92933	7467
2.93000	7462
2.93067	7456
2.93133	7450
2.93200	7443
2.93267	7437
2.93333	7431
2.93400	7424
2.93467	7417
2.93533	7410
2.93600	7403
2.93667	7396
2.93733	7388
2.93800	7381
2.93867	7373
2.93933	7366
2.94000	7358
2.94067	7350
2.94133	7342
2.94200	7334
2.94267	7326
2.94333	7318
2.94400	7310
2.94467	7302
2.94533	7293
2.94600	7285
2.94667	7277
2.94733	7268
2.94800	7260
2.94867	7252
2.94933	7243
2.95000	7235
2.95067	7226
2.95133	7218
2.95200	7210
2.95267	7201
2.95333	7193
2.95400	7185
2.95467	7177
2.95533	7168
2.95600	7160
2.95667	7152
2.95733	7144
2.95800	7136
2.95867	7128
2.95933	7120
2.96000	7113
2.96067	7105
2.96133	7097
2.96200	7089
2.96267	7082
2.96333	7074
2.96400	7067
2.96467	7059
2.96533	7052
2.96600	7045
2.96667	7038
2.96733	7031
2.96800	7024
2.96867	7017
2.96933	7010
2.97000	7003
2.97067	6996
2.97133	6989
2.97200	6983
2.97267	6976
2.97333	6970
2.97400	6963
2.97467	6957
2.97533	6951
2.97600	6944
2.97667	6938
2.97733	6932
2.97800	6926
2.97867	6920
2.97933	6915
2.98000	6909
2.98067	6903
2.98133	6898
2.98200	6892
2.98267	6887
2.98333	6881
2.98400	6876
2.98467	6870
2.98533	6865
2.98600	6860
2.98667	6855
2.98733	6850
2.98800	6845
2.98867	6840
2.98933	6835
2.99000	6830
2.99067	6825
2.99133	6820
2.99200	6816
2.99267	6811
2.99333	6807
2.99400	6802
2.99467	6798
2.99533	6793
2.99600	6789
2.99667	6785
2.99733	6780
2.99800	6776
2.99867	6772
2.99933	6768
3.00000	6764
3.00067	6760
3.00133	6756
3.00200	6752
3.00267	6748
3.00333	6744
3.00400	6741
3.00467	6737
3.00533	6733
3.00600	6729
3.00667	6726
3.00733	6722
3.00800	6718
3.00867	6715
3.00933	6711
3.01000	6708
3.01067	6704
3.01133	6700
3.01200	6697
3.01267	6694
3.01333	6690
3.01400	6687
3.01467	6683
3.01533	6680
3.01600	6677
3.01667	6673
3.01733	6670
3.01800	6667
3.01867	6663
3.01933	6660
3.02000	6657
3.02067	6653
3.02133	6650
3.02200	6647
3.02267	6644
3.02333	6641
3.02400	6637
3.02467	6634
3.02533	6631
3.02600	6628
3.02667	6625
3.02733	6622
3.02800	6619
3.02867	6616
3.02933	6613
3.03000	6610
3.03067	6607
3.03133	6604
3.03200	6601
3.03267	6598
3.03333	6595
3.03400	6592
3.03467	6589
3.03533	6587
3.03600	6584
3.03667	6581
3.03733	6578
3.03800	6576
3.03867	6573
3.03933	6570
3.04000	6568
3.04067	6565
3.04133	6562
3.04200	6560
3.04267	6557
3.04333	6555
3.04400	6552
3.04467	6550
3.04533	6548
3.04600	6545
3.04667	6543
3.04733	6540
3.04800	6538
3.04867	6535
3.04933	6533
3.05000	6531
3.05067	6528
3.05133	6526
3.05200	6524
3.05267	6521
3.05333	6519
3.05400	6517
3.05467	6514
3.05533	6512
3.05600	6510
3.05667	6508
3.05733	6505
3.05800	6503
3.05867	6501
3.05933	6498
3.06000	6496
3.06067	6494
3.06133	6492
3.06200	6489
3.06267	6487
3.06333	6485
3.06400	6482
3.06467	6480
3.06533	6478
3.06600	6476
3.06667	6473
3.06733	6471
3.06800	6469
3.06867	6467
3.06933	6465
3.07000	6462
3.07067	6460
3.07133	6458
3.07200	6456
3.07267	6453
3.07333	6451
3.07400	6449
3.07467	6447
3.07533	6444
3.07600	6442
3.07667	6440
3.07733	6437
3.07800	6435
3.07867	6433
3.07933	6430
3.08000	6428
3.08067	6426
3.08133	6424
3.08200	6421
3.08267	6419
3.08333	6417
3.08400	6414
3.08467	6412
3.08533	6410
3.08600	6408
3.08667	6405
3.08733	6403
3.08800	6401
3.08867	6399
3.08933	6396
3.09000	6394
3.09067	6392
3.09133	6389
3.09200	6387
3.09267	6385
3.09333	6382
3.09400	6380
3.09467	6378
3.09533	6375
3.09600	6373
3.09667	6371
3.09733	6368
3.09800	6366
3.09867	6363
3.09933	6361
3.10000	6359
3.10067	6356
3.10133	6354
3.10200	6351
3.10267	6349
3.10333	6347
3.10400	6344
3.10467	6342
3.10533	6340
3.10600	6337
3.10667	6335
3.10733	6332
3.10800	6330
3.10867	6328
3.10933	6325
3.11000	6323
3.11067	6321
3.11133	6318
3.11200	6316
3.11267	6314
3.11333	6311
3.11400	6309
3.11467	6307
3.11533	6304
3.11600	6302
3.11667	6300
3.11733	6297
3.11800	6295
3.11867	6293
3.11933	6291
3.12000	6288
3.12067	6286
3.12133	6284
3.12200	6281
3.12267	6279
3.12333	6277
3.12400	6274
3.12467	6272
3.12533	6270
3.12600	6268
3.12667	6266
3.12733	6263
3.12800	6261
3.12867	6259
3.12933	6257
3.13000	6254
3.13067	6252
3.13133	6250
3.13200	6248
3.13267	6246
3.13333	6244
3.13400	6241
3.13467	6239
3.13533	6237
3.13600	6235
3.13667	6233
3.13733	6231
3.13800	6229
3.13867	6227
3.13933	6225
3.14000	6223
3.14067	6221
3.14133	6219
3.14200	6217
3.14267	6215
3.14333	6213
3.14400	6211
3.14467	6209
3.14533	6207
3.14600	6205
3.14667	6203
3.14733	6201
3.14800	6199
3.14867	6197
3.14933	6195
3.15000	6193
3.15067	6191
3.15133	6189
3.15200	6187
3.15267	6186
3.15333	6184
3.15400	6182
3.15467	6180
3.15533	6178
3.15600	6176
3.15667	6174
3.15733	6173
3.15800	6171
3.15867	6169
3.15933	6167
3.16000	6165
3.16067	6164
3.16133	6162
3.16200	6160
3.16267	6158
3.16333	6156
3.16400	6155
3.16467	6153
3.16533	6151
3.16600	6149
3.16667	6147
3.16733	6145
3.16800	6143
3.16867	6141
3.16933	6139
3.17000	6138
3.17067	6136
3.17133	6134
3.17200	6132
3.17267	6130
3.17333	6128
3.17400	6126
3.17467	6124
3.17533	6122
3.17600	6120
3.17667	6118
3.17733	6116
3.17800	6114
3.17867	6112
3.17933	6110
3.18000	6108
3.18067	6106
3.18133	6104
3.18200	6101
3.18267	6099
3.18333	6097
3.18400	6095
3.18467	6093
3.18533	6091
3.18600	6089
3.18667	6087
3.18733	6085
3.18800	6083
3.18867	6080
3.18933	6078
3.19000	6076
3.19067	6074
3.19133	6072
3.19200	6069
3.19267	6067
3.19333	6065
3.19400	6063
3.19467	6061
3.19533	6058
3.19600	6056
3.19667	6054
3.19733	6052
3.19800	6049
3.19867	6047
3.19933	6045
3.20000	6042
3.20067	6040
3.20133	6037
3.20200	6035
3.20267	6033
3.20333	6030
3.20400	6028
3.20467	6025
3.20533	6023
3.20600	6020
3.20667	6018
3.20733	6016
3.20800	6013
3.20867	6011
3.20933	6009
3.21000	6006
3.21067	6004
3.21133	6002
3.21200	5999
3.21267	5997
3.21333	5995
3.21400	5993
3.21467	5991
3.21533	5988
3.21600	5986
3.21667	5984
3.21733	5982
3.21800	5980
3.21867	5978
3.21933	5975
3.22000	5973
3.22067	5971
3.22133	5969
3.22200	5967
3.22267	5965
3.22333	5963
3.22400	5960
3.22467	5958
3.22533	5956
3.22600	5954
3.22667	5952
3.22733	5950
3.22800	5948
3.22867	5946
3.22933	5944
3.23000	5942
3.23067	5940
3.23133	5938
3.23200	5936
3.23267	5935
3.23333	5933
3.23400	5931
3.23467	5929
3.23533	5927
3.23600	5925
3.23667	5923
3.23733	5921
3.23800	5919
3.23867	5917
3.23933	5915
3.24000	5913
3.24067	5911
3.24133	5909
3.24200	5907
3.24267	5905
3.24333	5903
3.24400	5901
3.24467	5899
3.24533	5897
3.24600	5895
3.24667	5893
3.24733	5891
3.24800	5889
3.24867	5887
3.24933	5885
3.25000	5883
3.25067	5881
3.25133	5879
3.25200	5878
3.25267	5876
3.25333	5874
3.25400	5872
3.25467	5870
3.25533	5868
3.25600	5866
3.25667	5864
3.25733	5862
3.25800	5861
3.25867	5859
3.25933	5857
3.26000	5855
3.26067	5853
3.26133	5852
3.26200	5850
3.26267	5848
3.26333	5847
3.26400	5845
3.26467	5843
3.26533	5841
3.26600	5840
3.26667	5838
3.26733	5836
3.26800	5835
3.26867	5833
3.26933	5831
3.27000	5830
3.27067	5828
3.27133	5826
3.27200	5824
3.27267	5823
3.27333	5821
3.27400	5819
3.27467	5818
3.27533	5816
3.27600	5814
3.27667	5813
3.27733	5811
3.27800	5809
3.27867	5807
3.27933	5806
3.28000	5804
3.28067	5802
3.28133	5801
3.28200	5799
3.28267	5797
3.28333	5796
3.28400	5794
3.28467	5792
3.28533	5791
3.28600	5789
3.28667	5788
3.28733	5786
3.28800	5784
3.28867	5783
3.28933	5781
3.29000	5779
3.29067	5778
3.29133	5776
3.29200	5775
3.29267	5773
3.29333	5771
3.29400	5770
3.29467	5768
3.29533	5766
3.29600	5765
3.29667	5763
3.29733	5761
3.29800	5760
3.29867	5758
3.29933	5756
3.30000	5755
3.30067	5753
3.30133	5751
3.30200	5750
3.30267	5748
3.30333	5747
3.30400	5745
3.30467	5744
3.30533	5742
3.30600	5741
3.30667	5739
3.30733	5738
3.30800	5736
3.30867	5735
3.30933	5733
3.31000	5732
3.31067	5730
3.31133	5729
3.31200	5727
3.31267	5725
3.31333	5724
3.31400	5722
3.31467	5721
3.31533	5719
3.31600	5717
3.31667	5716
3.31733	5714
3.31800	5713
3.31867	5711
3.31933	5709
3.32000	5708
3.32067	5706
3.32133	5704
3.32200	5703
3.32267	5701
3.32333	5700
3.32400	5698
3.32467	5696
3.32533	5695
3.32600	5693
3.32667	5691
3.32733	5690
3.32800	5688
3.32867	5686
3.32933	5685
3.33000	5683
3.33067	5682
3.33133	5680
3.33200	5678
3.33267	5677
3.33333	5675
3.33400	5674
3.33467	5672
3.33533	5670
3.33600	5669
3.33667	5667
3.33733	5666
3.33800	5664
3.33867	5663
3.33933	5661
3.34000	5660
3.34067	5658
3.34133	5657
3.34200	5655
3.34267	5654
3.34333	5652
3.34400	5651
3.34467	5649
3.34533	5648
3.34600	5647
3.34667	5645
3.34733	5644
3.34800	5642
3.34867	5641
3.34933	5640
3.35000	5638
3.35067	5637
3.35133	5635
3.35200	5634
3.35267	5633
3.35333	5632
3.35400	5631
3.35467	5629
3.35533	5628
3.35600	5627
3.35667	5626
3.35733	5625
3.35800	5624
3.35867	5623
3.35933	5622
3.36000	5621
3.36067	5620
3.36133	5619
3.36200	5619
3.36267	5618
3.36333	5617
3.36400	5616
3.36467	5615
3.36533	5615
3.36600	5614
3.36667	5613
3.36733	5613
3.36800	5612
3.36867	5611
3.36933	5611
3.37000	5610
3.37067	5610
3.37133	5609
3.37200	5609
3.37267	5608
3.37333	5608
3.37400	5608
3.37467	5607
3.37533	5607
3.37600	5606
3.37667	5606
3.37733	5606
3.37800	5606
3.37867	5605
3.37933	5605
3.38000	5605
3.38067	5605
3.38133	5605
3.38200	5605
3.38267	5605
3.38333	5605
3.38400	5605
3.38467	5606
3.38533	5606
3.38600	5606
3.38667	5606
3.38733	5606
3.38800	5607
3.38867	5607
3.38933	5607
3.39000	5608
3.39067	5608
3.39133	5609
3.39200	5609
3.39267	5609
3.39333	5610
3.39400	5610
3.39467	5611
3.39533	5612
3.39600	5612
3.39667	5613
3.39733	5613
3.39800	5614
3.39867	5615
3.39933	5616
3.40000	5616
3.40067	5617
3.40133	5618
3.40200	5619
3.40267	5620
3.40333	5621
3.40400	5622
3.40467	5623
3.40533	5624
3.40600	5625
3.40667	5626
3.40733	5627
3.40800	5627
3.40867	5628
3.40933	5629
3.41000	5630
3.41067	5631
3.41133	5632
3.41200	5633
3.41267	5635
3.41333	5636
3.41400	5637
3.41467	5638
3.41533	5639
3.41600	5640
3.41667	5641
3.41733	5641
3.41800	5642
3.41867	5643
3.41933	5644
3.42000	5645
3.42067	5646
3.42133	5647
3.42200	5648
3.42267	5649
3.42333	5650
3.42400	5651
3.42467	5651
3.42533	5652
3.42600	5653
3.42667	5654
3.42733	5654
3.42800	5655
3.42867	5656
3.42933	5657
3.43000	5657
3.43067	5658
3.43133	5658
3.43200	5659
3.43267	5660
3.43333	5660
3.43400	5661
3.43467	5661
3.43533	5662
3.43600	5662
3.43667	5662
3.43733	5663
3.43800	5663
3.43867	5663
3.43933	5664
3.44000	5664
3.44067	5664
3.44133	5664
3.44200	5664
3.44267	5664
3.44333	5664
3.44400	5664
3.44467	5664
3.44533	5664
3.44600	5664
3.44667	5663
3.44733	5663
3.44800	5663
3.44867	5663
3.44933	5662
3.45000	5662
3.45067	5661
3.45133	5661
3.45200	5661
3.45267	5660
3.45333	5660
3.45400	5659
3.45467	5659
3.45533	5658
3.45600	5657
3.45667	5657
3.45733	5656
3.45800	5655
3.45867	5654
3.45933	5653
3.46000	5653
3.46067	5652
3.46133	5651
3.46200	5650
3.46267	5648
3.46333	5647
3.46400	5646
3.46467	5645
3.46533	5644
3.46600	5642
3.46667	5641
3.46733	5639
3.46800	5638
3.46867	5637
3.46933	5635
3.47000	5633
3.47067	5632
3.47133	5630
3.47200	5629
3.47267	5627
3.47333	5625
3.47400	5623
3.47467	5622
3.47533	5620
3.47600	5618
3.47667	5616
3.47733	5614
3.47800	5612
3.47867	5610
3.47933	5608
3.48000	5606
3.48067	5604
3.48133	5602
3.48200	5600
3.48267	5598
3.48333	5596
3.48400	5593
3.48467	5591
3.48533	5589
3.48600	5587
3.48667	5585
3.48733	5582
3.48800	5580
3.48867	5578
3.48933	5576
3.49000	5573
3.49067	5571
3.49133	5569
3.49200	5567
3.49267	5564
3.49333	5562
3.49400	5560
3.49467	5557
3.49533	5555
3.49600	5553
3.49667	5550
3.49733	5548
3.49800	5546
3.49867	5544
3.49933	5541
3.50000	5539
3.50067	5537
3.50133	5535
3.50200	5533
3.50267	5531
3.50333	5529
3.50400	5527
3.50467	5525
3.50533	5523
3.50600	5521
3.50667	5519
3.50733	5518
3.50800	5516
3.50867	5514
3.50933	5513
3.51000	5511
3.51067	5510
3.51133	5509
3.51200	5508
3.51267	5507
3.51333	5506
3.51400	5505
3.51467	5504
3.51533	5504
3.51600	5503
3.51667	5503
3.51733	5503
3.51800	5503
3.51867	5504
3.51933	5504
3.52000	5505
3.52067	5507
3.52133	5508
3.52200	5510
3.52267	5513
3.52333	5516
3.52400	5519
3.52467	5523
3.52533	5527
3.52600	5533
3.52667	5538
3.52733	5545
3.52800	5552
3.52867	5560
3.52933	5569
3.53000	5580
3.53067	5591
3.53133	5603
3.53200	5617
3.53267	5632
3.53333	5649
3.53400	5667
3.53467	5687
3.53533	5709
3.53600	5733
3.53667	5759
3.53733	5787
3.53800	5818
3.53867	5852
3.53933	5889
3.54000	5930
3.54067	5973
3.54133	6021
3.54200	6072
3.54267	6128
3.54333	6188
3.54400	6253
3.54467	6323
3.54533	6399
3.54600	6481
3.54667	6569
3.54733	6663
3.54800	6765
3.54867	6874
3.54933	6990
3.55000	7115
3.55067	7249
3.55133	7392
3.55200	7545
3.55267	7709
3.55333	7883
3.55400	8069
3.55467	8267
3.55533	8478
3.55600	8702
3.55667	8940
3.55733	9192
3.55800	9460
3.55867	9744
3.55933	10044
3.56000	10362
3.56067	10698
3.56133	11053
3.56200	11428
3.56267	11823
3.56333	12239
3.56400	12678
3.56467	13139
3.56533	13623
3.56600	14132
3.56667	14667
3.56733	15227
3.56800	15814
3.56867	16429
3.56933	17073
3.57000	17747
3.57067	18452
3.57133	19189
3.57200	19959
3.57267	20764
3.57333	21605
3.57400	22482
3.57467	23397
3.57533	24350
3.57600	25344
3.57667	26378
3.57733	27453
3.57800	28571
3.57867	29732
3.57933	30937
3.58000	32187
3.58067	33482
3.58133	34823
3.58200	36211
3.58267	37646
3.58333	39131
3.58400	40665
3.58467	42250
3.58533	43887
3.58600	45577
3.58667	47320
3.58733	49118
3.58800	50970
3.58867	52878
3.58933	54842
3.59000	56863
3.59067	58940
3.59133	61075
3.59200	63268
3.59267	65519
3.59333	67829
3.59400	70198
3.59467	72627
3.59533	75117
3.59600	77667
3.59667	80280
3.59733	82954
3.59800	85692
3.59867	88494
3.59933	91361
3.60000	94295
3.60067	97296
3.60133	100365
3.60200	103503
3.60267	106710
3.60333	109988
3.60400	113337
3.60467	116756
3.60533	120245
3.60600	123804
3.60667	127433
3.60733	131132
3.60800	134900
3.60867	138738
3.60933	142646
3.61000	146624
3.61067	150673
3.61133	154794
3.61200	158988
3.61267	163255
3.61333	167597
3.61400	172014
3.61467	176506
3.61533	181073
3.61600	185715
3.61667	190432
3.61733	195221
3.61800	200083
3.61867	205014
3.61933	210015
3.62000	215083
3.62067	220219
3.62133	225421
3.62200	230691
3.62267	236029
3.62333	241435
3.62400	246907
3.62467	252448
3.62533	258058
3.62600	263735
3.62667	269480
3.62733	275293
3.62800	281172
3.62867	287116
3.62933	293128
3.63000	299204
3.63067	305346
3.63133	311551
3.63200	317819
3.63267	324149
3.63333	330540
3.63400	336992
3.63467	343505
3.63533	350078
3.63600	356714
3.63667	363411
3.63733	370170
3.63800	376991
3.63867	383874
3.63933	390818
3.64000	397823
3.64067	404887
3.64133	412010
3.64200	419190
3.64267	426426
3.64333	433718
3.64400	441065
3.64467	448466
3.64533	455919
3.64600	463424
3.64667	470979
3.64733	478583
3.64800	486232
3.64867	493925
3.64933	501659
3.65000	509433
3.65067	517244
3.65133	525089
3.65200	532965
3.65267	540869
3.65333	548799
3.65400	556751
3.65467	564723
3.65533	572715
3.65600	580725
3.65667	588753
3.65733	596798
3.65800	604861
3.65867	612944
3.65933	621046
3.66000	629170
3.66067	637318
3.66133	645491
3.66200	653689
3.66267	661910
3.66333	670154
3.66400	678420
3.66467	686707
3.66533	695014
3.66600	703343
3.66667	711693
3.66733	720065
3.66800	728460
3.66867	736876
3.66933	745314
3.67000	753775
3.67067	762258
3.67133	770763
3.67200	779289
3.67267	787835
3.67333	796400
3.67400	804981
3.67467	813579
3.67533	822193
3.67600	830824
3.67667	839473
3.67733	848141
3.67800	856830
3.67867	865538
3.67933	874266
3.68000	883011
3.68067	891772
3.68133	900551
3.68200	909346
3.68267	918160
3.68333	926990
3.68400	935836
3.68467	944694
3.68533	953563
3.68600	962439
3.68667	971317
3.68733	980197
3.68800	989077
3.68867	997957
3.68933	1006838
3.69000	1015720
3.69067	1024606
3.69133	1033499
3.69200	1042400
3.69267	1051314
3.69333	1060243
3.69400	1069191
3.69467	1078159
3.69533	1087149
3.69600	1096159
3.69667	1105188
3.69733	1114236
3.69800	1123301
3.69867	1132380
3.69933	1141473
3.70000	1150577
3.70067	1159692
3.70133	1168817
3.70200	1177950
3.70267	1187088
3.70333	1196232
3.70400	1205377
3.70467	1214523
3.70533	1223666
3.70600	1232806
3.70667	1241937
3.70733	1251056
3.70800	1260156
3.70867	1269228
3.70933	1278262
3.71000	1287249
3.71067	1296178
3.71133	1305041
3.71200	1313826
3.71267	1322520
3.71333	1331109
3.71400	1339578
3.71467	1347910
3.71533	1356086
3.71600	1364083
3.71667	1371877
3.71733	1379439
3.71800	1386742
3.71867	1393753
3.71933	1400441
3.72000	1406771
3.72067	1412707
3.72133	1418211
3.72200	1423240
3.72267	1427751
3.72333	1431699
3.72400	1435039
3.72467	1437729
3.72533	1439728
3.72600	1440999
3.72667	1441506
3.72733	1441220
3.72800	1440112
3.72867	1438163
3.72933	1435356
3.73000	1431682
3.73067	1427136
3.73133	1421720
3.73200	1415439
3.73267	1408305
3.73333	1400336
3.73400	1391550
3.73467	1381974
3.73533	1371635
3.73600	1360563
3.73667	1348793
3.73733	1336359
3.73800	1323297
3.73867	1309647
3.73933	1295445
3.74000	1280732
3.74067	1265546
3.74133	1249925
3.74200	1233909
3.74267	1217535
3.74333	1200841
3.74400	1183861
3.74467	1166633
3.74533	1149188
3.74600	1131561
3.74667	1113783
3.74733	1095883
3.74800	1077890
3.74867	1059831
3.74933	1041733
3.75000	1023619
3.75067	1005513
3.75133	987436
3.75200	969409
3.75267	951451
3.75333	933579
3.75400	915811
3.75467	898162
3.75533	880646
3.75600	863277
3.75667	846066
3.75733	829025
3.75800	812164
3.75867	795492
3.75933	779018
3.76000	762748
3.76067	746691
3.76133	730852
3.76200	715236
3.76267	699848
3.76333	684694
3.76400	669775
3.76467	655095
3.76533	640657
3.76600	626462
3.76667	612513
3.76733	598809
3.76800	585352
3.76867	572142
3.76933	559179
3.77000	546462
3.77067	533991
3.77133	521764
3.77200	509780
3.77267	498038
3.77333	486537
3.77400	475273
3.77467	464246
3.77533	453453
3.77600	442891
3.77667	432558
3.77733	422452
3.77800	412569
3.77867	402906
3.77933	393462
3.78000	384232
3.78067	375213
3.78133	366403
3.78200	357797
3.78267	349394
3.78333	341188
3.78400	333178
3.78467	325359
3.78533	317729
3.78600	310283
3.78667	303019
3.78733	295933
3.78800	289021
3.78867	282280
3.78933	275707
3.79000	269298
3.79067	263050
3.79133	256959
3.79200	251022
3.79267	245236
3.79333	239597
3.79400	234102
3.79467	228748
3.79533	223531
3.79600	218450
3.79667	213500
3.79733	208680
3.79800	203985
3.79867	199414
3.79933	194964
3.80000	190631
3.80067	186413
3.80133	182308
3.80200	178312
3.80267	174423
3.80333	170639
3.80400	166957
3.80467	163373
3.80533	159887
3.80600	156495
3.80667	153194
3.80733	149983
3.80800	146859
3.80867	143820
3.80933	140863
3.81000	137987
3.81067	135188
3.81133	132466
3.81200	129818
3.81267	127242
3.81333	124737
3.81400	122301
3.81467	119931
3.81533	117626
3.81600	115384
3.81667	113204
3.81733	111084
3.81800	109022
3.81867	107016
3.81933	105066
3.82000	103169
3.82067	101325
3.82133	99532
3.82200	97789
3.82267	96094
3.82333	94446
3.82400	92843
3.82467	91285
3.82533	89770
3.82600	88297
3.82667	86865
3.82733	85473
3.82800	84119
3.82867	82803
3.82933	81523
3.83000	80279
3.83067	79070
3.83133	77895
3.83200	76752
3.83267	75640
3.83333	74560
3.83400	73510
3.83467	72488
3.83533	71495
3.83600	70530
3.83667	69591
3.83733	68678
3.83800	67791
3.83867	66928
3.83933	66088
3.84000	65272
3.84067	64477
3.84133	63705
3.84200	62953
3.84267	62222
3.84333	61510
3.84400	60818
3.84467	60144
3.84533	59488
3.84600	58849
3.84667	58227
3.84733	57622
3.84800	57033
3.84867	56460
3.84933	55902
3.85000	55358
3.85067	54829
3.85133	54313
3.85200	53812
3.85267	53323
3.85333	52846
3.85400	52382
3.85467	51929
3.85533	51488
3.85600	51058
3.85667	50638
3.85733	50229
3.85800	49829
3.85867	49439
3.85933	49058
3.86000	48686
3.86067	48322
3.86133	47967
3.86200	47619
3.86267	47279
3.86333	46947
3.86400	46622
3.86467	46305
3.86533	45994
3.86600	45690
3.86667	45393
3.86733	45103
3.86800	44819
3.86867	44542
3.86933	44270
3.87000	44005
3.87067	43745
3.87133	43491
3.87200	43242
3.87267	42998
3.87333	42759
3.87400	42525
3.87467	42295
3.87533	42070
3.87600	41849
3.87667	41632
3.87733	41418
3.87800	41209
3.87867	41003
3.87933	40801
3.88000	40603
3.88067	40408
3.88133	40216
3.88200	40028
3.88267	39843
3.88333	39662
3.88400	39484
3.88467	39309
3.88533	39137
3.88600	38968
3.88667	38802
3.88733	38639
3.88800	38479
3.88867	38321
3.88933	38166
3.89000	38014
3.89067	37864
3.89133	37716
3.89200	37571
3.89267	37428
3.89333	37287
3.89400	37148
3.89467	37011
3.89533	36876
3.89600	36743
3.89667	36611
3.89733	36482
3.89800	36354
3.89867	36227
3.89933	36103
3.90000	35980
3.90067	35858
3.90133	35738
3.90200	35620
3.90267	35503
3.90333	35388
3.90400	35274
3.90467	35161
3.90533	35050
3.90600	34941
3.90667	34833
3.90733	34726
3.90800	34621
3.90867	34517
3.90933	34415
3.91000	34313
3.91067	34213
3.91133	34114
3.91200	34016
3.91267	33919
3.91333	33823
3.91400	33728
3.91467	33634
3.91533	33541
3.91600	33449
3.91667	33358
3.91733	33268
3.91800	33180
3.91867	33092
3.91933	33004
3.92000	32918
3.92067	32833
3.92133	32748
3.92200	32664
3.92267	32580
3.92333	32497
3.92400	32415
3.92467	32334
3.92533	32253
3.92600	32173
3.92667	32094
3.92733	32016
3.92800	31938
3.92867	31861
3.92933	31785
3.93000	31710
3.93067	31635
3.93133	31561
3.93200	31487
3.93267	31414
3.93333	31341
3.93400	31269
3.93467	31197
3.93533	31125
3.93600	31054
3.93667	30984
3.93733	30913
3.93800	30844
3.93867	30775
3.93933	30706
3.94000	30637
3.94067	30570
3.94133	30502
3.94200	30435
3.94267	30369
3.94333	30303
3.94400	30237
3.94467	30172
3.94533	30107
3.94600	30042
3.94667	29978
3.94733	29915
3.94800	29852
3.94867	29790
3.94933	29728
3.95000	29666
3.95067	29605
3.95133	29544
3.95200	29484
3.95267	29424
3.95333	29364
3.95400	29305
3.95467	29246
3.95533	29188
3.95600	29129
3.95667	29072
3.95733	29014
3.95800	28957
3.95867	28899
3.95933	28842
3.96000	28785
3.96067	28728
3.96133	28671
3.96200	28615
3.96267	28558
3.96333	28501
3.96400	28445
3.96467	28388
3.96533	28332
3.96600	28275
3.96667	28219
3.96733	28164
3.96800	28108
3.96867	28053
3.96933	27998
3.97000	27943
3.97067	27889
3.97133	27835
3.97200	27780
3.97267	27726
3.97333	27673
3.97400	27619
3.97467	27565
3.97533	27512
3.97600	27458
3.97667	27405
3.97733	27352
3.97800	27298
3.97867	27245
3.97933	27192
3.98000	27140
3.98067	27087
3.98133	27035
3.98200	26982
3.98267	26930
3.98333	26879
3.98400	26827
3.98467	26776
3.98533	26725
3.98600	26675
3.98667	26625
3.98733	26575
3.98800	26526
3.98867	26477
3.98933	26429
3.99000	26381
3.99067	26334
3.99133	26287
3.99200	26240
3.99267	26194
3.99333	26148
3.99400	26103
3.99467	26059
3.99533	26015
3.99600	25971
3.99667	25928
3.99733	25886
3.99800	25844
3.99867	25803
3.99933	25762
4.00000	25722
4.00067	25682
4.00133	25643
4.00200	25604
4.00267	25565
4.00333	25527
4.00400	25489
4.00467	25451
4.00533	25414
4.00600	25377
4.00667	25341
4.00733	25304
4.00800	25269
4.00867	25233
4.00933	25198
4.01000	25163
4.01067	25129
4.01133	25095
4.01200	25062
4.01267	25029
4.01333	24996
4.01400	24964
4.01467	24932
4.01533	24901
4.01600	24870
4.01667	24839
4.01733	24809
4.01800	24779
4.01867	24749
4.01933	24719
4.02000	24690
4.02067	24660
4.02133	24631
4.02200	24602
4.02267	24574
4.02333	24545
4.02400	24517
4.02467	24489
4.02533	24461
4.02600	24433
4.02667	24406
4.02733	24379
4.02800	24353
4.02867	24327
4.02933	24301
4.03000	24275
4.03067	24250
4.03133	24225
4.03200	24201
4.03267	24177
4.03333	24153
4.03400	24129
4.03467	24106
4.03533	24083
4.03600	24061
4.03667	24039
4.03733	24017
4.03800	23996
4.03867	23975
4.03933	23954
4.04000	23933
4.04067	23913
4.04133	23893
4.04200	23873
4.04267	23854
4.04333	23834
4.04400	23815
4.04467	23795
4.04533	23775
4.04600	23756
4.04667	23737
4.04733	23717
4.04800	23698
4.04867	23680
4.04933	23662
4.05000	23644
4.05067	23626
4.05133	23609
4.05200	23593
4.05267	23577
4.05333	23561
4.05400	23546
4.05467	23531
4.05533	23516
4.05600	23502
4.05667	23488
4.05733	23474
4.05800	23460
4.05867	23446
4.05933	23433
4.06000	23420
4.06067	23407
4.06133	23395
4.06200	23383
4.06267	23370
4.06333	23358
4.06400	23346
4.06467	23334
4.06533	23322
4.06600	23310
4.06667	23298
4.06733	23286
4.06800	23274
4.06867	23262
4.06933	23250
4.07000	23238
4.07067	23226
4.07133	23213
4.07200	23201
4.07267	23188
4.07333	23176
4.07400	23163
4.07467	23150
4.07533	23137
4.07600	23123
4.07667	23110
4.07733	23096
4.07800	23082
4.07867	23068
4.07933	23053
4.08000	23038
4.08067	23023
4.08133	23008
4.08200	22992
4.08267	22976
4.08333	22960
4.08400	22943
4.08467	22926
4.08533	22908
4.08600	22890
4.08667	22872
4.08733	22853
4.08800	22834
4.08867	22814
4.08933	22794
4.09000	22774
4.09067	22753
4.09133	22731
4.09200	22709
4.09267	22687
4.09333	22665
4.09400	22642
4.09467	22619
4.09533	22595
4.09600	22572
4.09667	22548
4.09733	22524
4.09800	22499
4.09867	22475
4.09933	22450
4.10000	22425
4.10067	22399
4.10133	22374
4.10200	22347
4.10267	22321
4.10333	22294
4.10400	22267
4.10467	22240
4.10533	22212
4.10600	22184
4.10667	22155
4.10733	22127
4.10800	22098
4.10867	22068
4.10933	22039
4.11000	22009
4.11067	21979
4.11133	21949
4.11200	21919
4.11267	21889
4.11333	21859
4.11400	21829
4.11467	21799
4.11533	21769
4.11600	21739
4.11667	21710
4.11733	21680
4.11800	21651
4.11867	21622
4.11933	21593
4.12000	21564
4.12067	21535
4.12133	21507
4.12200	21479
4.12267	21450
4.12333	21422
4.12400	21394
4.12467	21366
4.12533	21338
4.12600	21310
4.12667	21282
4.12733	21254
4.12800	21227
4.12867	21199
4.12933	21172
4.13000	21145
4.13067	21118
4.13133	21092
4.13200	21066
4.13267	21040
4.13333	21015
4.13400	20990
4.13467	20965
4.13533	20941
4.13600	20916
4.13667	20892
4.13733	20869
4.13800	20845
4.13867	20822
4.13933	20799
4.14000	20776
4.14067	20753
4.14133	20731
4.14200	20708
4.14267	20686
4.14333	20664
4.14400	20642
4.14467	20620
4.14533	20599
4.14600	20578
4.14667	20556
4.14733	20535
4.14800	20514
4.14867	20494
4.14933	20473
4.15000	20453
4.15067	20432
4.15133	20412
4.15200	20392
4.15267	20372
4.15333	20353
4.15400	20333
4.15467	20314
4.15533	20294
4.15600	20275
4.15667	20256
4.15733	20237
4.15800	20217
4.15867	20198
4.15933	20179
4.16000	20160
4.16067	20141
4.16133	20122
4.16200	20103
4.16267	20084
4.16333	20065
4.16400	20046
4.16467	20027
4.16533	20008
4.16600	19989
4.16667	19969
4.16733	19950
4.16800	19930
4.16867	19911
4.16933	19891
4.17000	19872
4.17067	19852
4.17133	19833
4.17200	19813
4.17267	19793
4.17333	19774
4.17400	19754
4.17467	19734
4.17533	19715
4.17600	19695
4.17667	19675
4.17733	19654
4.17800	19634
4.17867	19613
4.17933	19592
4.18000	19571
4.18067	19550
4.18133	19529
4.18200	19508
4.18267	19487
4.18333	19465
4.18400	19444
4.18467	19422
4.18533	19401
4.18600	19379
4.18667	19358
4.18733	19336
4.18800	19314
4.18867	19292
4.18933	19270
4.19000	19248
4.19067	19226
4.19133	19204
4.19200	19182
4.19267	19160
4.19333	19137
4.19400	19115
4.19467	19093
4.19533	19071
4.19600	19049
4.19667	19027
4.19733	19005
4.19800	18984
4.19867	18962
4.19933	18940
4.20000	18919
4.20067	18897
4.20133	18876
4.20200	18854
4.20267	18833
4.20333	18811
4.20400	18790
4.20467	18769
4.20533	18748
4.20600	18727
4.20667	18706
4.20733	18686
4.20800	18665
4.20867	18645
4.20933	18625
4.21000	18605
4.21067	18585
4.21133	18565
4.21200	18546
4.21267	18526
4.21333	18507
4.21400	18487
4.21467	18467
4.21533	18448
4.21600	18428
4.21667	18409
4.21733	18389
4.21800	18369
4.21867	18350
4.21933	18331
4.22000	18311
4.22067	18292
4.22133	18273
4.22200	18254
4.22267	18235
4.22333	18216
4.22400	18197
4.22467	18179
4.22533	18160
4.22600	18142
4.22667	18124
4.22733	18106
4.22800	18088
4.22867	18070
4.22933	18052
4.23000	18035
4.23067	18017
4.23133	18000
4.23200	17984
4.23267	17967
4.23333	17951
4.23400	17935
4.23467	17919
4.23533	17904
4.23600	17888
4.23667	17874
4.23733	17859
4.23800	17844
4.23867	17830
4.23933	17816
4.24000	17803
4.24067	17789
4.24133	17777
4.24200	17764
4.24267	17752
4.24333	17740
4.24400	17729
4.24467	17718
4.24533	17707
4.24600	17697
4.24667	17687
4.24733	17677
4.24800	17668
4.24867	17659
4.24933	17650
4.25000	17642
4.25067	17634
4.25133	17627
4.25200	17619
4.25267	17612
4.25333	17606
4.25400	17600
4.25467	17594
4.25533	17589
4.25600	17585
4.25667	17581
4.25733	17577
4.25800	17574
4.25867	17571
4.25933	17569
4.26000	17568
4.26067	17566
4.26133	17565
4.26200	17565
4.26267	17565
4.26333	17566
4.26400	17566
4.26467	17568
4.26533	17570
4.26600	17572
4.26667	17574
4.26733	17578
4.26800	17581
4.26867	17585
4.26933	17590
4.27000	17595
4.27067	17600
4.27133	17606
4.27200	17612
4.27267	17619
4.27333	17626
4.27400	17634
4.27467	17642
4.27533	17650
4.27600	17659
4.27667	17668
4.27733	17678
4.27800	17688
4.27867	17699
4.27933	17710
4.28000	17721
4.28067	17734
4.28133	17746
4.28200	17759
4.28267	17773
4.28333	17787
4.28400	17801
4.28467	17816
4.28533	17831
4.28600	17847
4.28667	17863
4.28733	17880
4.28800	17898
4.28867	17916
4.28933	17934
4.29000	17953
4.29067	17973
4.29133	17993
4.29200	18014
4.29267	18036
4.29333	18058
4.29400	18080
4.29467	18104
4.29533	18128
4.29600	18152
4.29667	18177
4.29733	18203
4.29800	18229
4.29867	18255
4.29933	18283
4.30000	18310
4.30067	18339
4.30133	18367
4.30200	18397
4.30267	18426
4.30333	18457
4.30400	18488
4.30467	18519
4.30533	18552
4.30600	18584
4.30667	18618
4.30733	18652
4.30800	18687
4.30867	18722
4.30933	18758
4.31000	18795
4.31067	18832
4.31133	18870
4.31200	18908
4.31267	18947
4.31333	18986
4.31400	19026
4.31467	19066
4.31533	19107
4.31600	19149
4.31667	19190
4.31733	19233
4.31800	19276
4.31867	19319
4.31933	19363
4.32000	19408
4.32067	19453
4.32133	19498
4.32200	19544
4.32267	19590
4.32333	19637
4.32400	19684
4.32467	19731
4.32533	19779
4.32600	19827
4.32667	19875
4.32733	19923
4.32800	19972
4.32867	20021
4.32933	20069
4.33000	20118
4.33067	20167
4.33133	20215
4.33200	20264
4.33267	20312
4.33333	20361
4.33400	20409
4.33467	20458
4.33533	20507
4.33600	20556
4.33667	20605
4.33733	20654
4.33800	20703
4.33867	20752
4.33933	20801
4.34000	20850
4.34067	20900
4.34133	20949
4.34200	20999
4.34267	21049
4.34333	21100
4.34400	21150
4.34467	21201
4.34533	21252
4.34600	21304
4.34667	21356
4.34733	21409
4.34800	21462
4.34867	21515
4.34933	21569
4.35000	21623
4.35067	21678
4.35133	21734
4.35200	21790
4.35267	21847
4.35333	21904
4.35400	21963
4.35467	22022
4.35533	22082
4.35600	22143
4.35667	22205
4.35733	22269
4.35800	22333
4.35867	22399
4.35933	22466
4.36000	22534
4.36067	22604
4.36133	22675
4.36200	22748
4.36267	22822
4.36333	22898
4.36400	22977
4.36467	23057
4.36533	23139
4.36600	23223
4.36667	23310
4.36733	23399
4.36800	23490
4.36867	23584
4.36933	23681
4.37000	23780
4.37067	23882
4.37133	23987
4.37200	24095
4.37267	24207
4.37333	24321
4.37400	24439
4.37467	24560
4.37533	24685
4.37600	24814
4.37667	24947
4.37733	25083
4.37800	25223
4.37867	25368
4.37933	25517
4.38000	25669
4.38067	25826
4.38133	25987
4.38200	26153
4.38267	26322
4.38333	26496
4.38400	26674
4.38467	26856
4.38533	27043
4.38600	27234
4.38667	27429
4.38733	27629
4.38800	27834
4.38867	28043
4.38933	28256
4.39000	28475
4.39067	28698
4.39133	28926
4.39200	29159
4.39267	29396
4.39333	29638
4.39400	29885
4.39467	30137
4.39533	30393
4.39600	30653
4.39667	30919
4.39733	31188
4.39800	31462
4.39867	31741
4.39933	32024
4.40000	32312
4.40067	32605
4.40133	32902
4.40200	33204
4.40267	33511
4.40333	33823
4.40400	34140
4.40467	34462
4.40533	34788
4.40600	35119
4.40667	35455
4.40733	35795
4.40800	36140
4.40867	36488
4.40933	36841
4.41000	37199
4.41067	37560
4.41133	37924
4.41200	38293
4.41267	38664
4.41333	39039
4.41400	39417
4.41467	39797
4.41533	40180
4.41600	40564
4.41667	40951
4.41733	41339
4.41800	41729
4.41867	42120
4.41933	42512
4.42000	42905
4.42067	43299
4.42133	43694
4.42200	44088
4.42267	44483
4.42333	44878
4.42400	45273
4.42467	45667
4.42533	46059
4.42600	46451
4.42667	46841
4.42733	47230
4.42800	47616
4.42867	48001
4.42933	48382
4.43000	48762
4.43067	49138
4.43133	49510
4.43200	49879
4.43267	50244
4.43333	50604
4.43400	50959
4.43467	51309
4.43533	51653
4.43600	51992
4.43667	52324
4.43733	52651
4.43800	52972
4.43867	53286
4.43933	53594
4.44000	53895
4.44067	54189
4.44133	54476
4.44200	54755
4.44267	55026
4.44333	55289
4.44400	55544
4.44467	55790
4.44533	56027
4.44600	56255
4.44667	56474
4.44733	56683
4.44800	56882
4.44867	57071
4.44933	57250
4.45000	57418
4.45067	57577
4.45133	57724
4.45200	57861
4.45267	57986
4.45333	58101
4.45400	58206
4.45467	58299
4.45533	58381
4.45600	58453
4.45667	58514
4.45733	58564
4.45800	58603
4.45867	58632
4.45933	58650
4.46000	58657
4.46067	58653
4.46133	58638
4.46200	58613
4.46267	58577
4.46333	58529
4.46400	58472
4.46467	58403
4.46533	58323
4.46600	58233
4.46667	58131
4.46733	58020
4.46800	57897
4.46867	57764
4.46933	57620
4.47000	57466
4.47067	57302
4.47133	57128
4.47200	56944
4.47267	56750
4.47333	56547
4.47400	56334
4.47467	56112
4.47533	55881
4.47600	55642
4.47667	55394
4.47733	55138
4.47800	54873
4.47867	54601
4.47933	54322
4.48000	54035
4.48067	53741
4.48133	53440
4.48200	53132
4.48267	52818
4.48333	52497
4.48400	52171
4.48467	51838
4.48533	51500
4.48600	51157
4.48667	50808
4.48733	50455
4.48800	50097
4.48867	49734
4.48933	49368
4.49000	48997
4.49067	48623
4.49133	48245
4.49200	47864
4.49267	47480
4.49333	47094
4.49400	46705
4.49467	46313
4.49533	45920
4.49600	45525
4.49667	45128
4.49733	44730
4.49800	44331
4.49867	43931
4.49933	43530
4.50000	43128
4.50067	42726
4.50133	42324
4.50200	41922
4.50267	41519
4.50333	41118
4.50400	40716
4.50467	40315
4.50533	39915
4.50600	39516
4.50667	39118
4.50733	38721
4.50800	38326
4.50867	37932
4.50933	37541
4.51000	37151
4.51067	36763
4.51133	36378
4.51200	35995
4.51267	35614
4.51333	35236
4.51400	34861
4.51467	34488
4.51533	34119
4.51600	33752
4.51667	33388
4.51733	33027
4.51800	32670
4.51867	32316
4.51933	31964
4.52000	31617
4.52067	31272
4.52133	30932
4.52200	30594
4.52267	30260
4.52333	29930
4.52400	29604
4.52467	29281
4.52533	28962
4.52600	28647
4.52667	28336
4.52733	28029
4.52800	27726
4.52867	27426
4.52933	27131
4.53000	26840
4.53067	26554
4.53133	26271
4.53200	25992
4.53267	25718
4.53333	25448
4.53400	25181
4.53467	24919
4.53533	24662
4.53600	24408
4.53667	24159
4.53733	23913
4.53800	23672
4.53867	23435
4.53933	23202
4.54000	22973
4.54067	22748
4.54133	22527
4.54200	22310
4.54267	22097
4.54333	21888
4.54400	21683
4.54467	21482
4.54533	21284
4.54600	21090
4.54667	20900
4.54733	20714
4.54800	20531
4.54867	20352
4.54933	20176
4.55000	20004
4.55067	19836
4.55133	19671
4.55200	19509
4.55267	19351
4.55333	19196
4.55400	19045
4.55467	18897
4.55533	18752
4.55600	18610
4.55667	18471
4.55733	18335
4.55800	18202
4.55867	18072
4.55933	17945
4.56000	17821
4.56067	17700
4.56133	17581
4.56200	17465
4.56267	17351
4.56333	17240
4.56400	17131
4.56467	17025
4.56533	16921
4.56600	16820
4.56667	16721
4.56733	16624
4.56800	16530
4.56867	16437
4.56933	16347
4.57000	16258
4.57067	16172
4.57133	16087
4.57200	16005
4.57267	15924
4.57333	15844
4.57400	15767
4.57467	15691
4.57533	15616
4.57600	15544
4.57667	15472
4.57733	15403
4.57800	15335
4.57867	15268
4.57933	15202
4.58000	15139
4.58067	15076
4.58133	15015
4.58200	14955
4.58267	14897
4.58333	14840
4.58400	14785
4.58467	14730
4.58533	14677
4.58600	14625
4.58667	14575
4.58733	14525
4.58800	14477
4.58867	14430
4.58933	14384
4.59000	14339
4.59067	14295
4.59133	14252
4.59200	14209
4.59267	14168
4.59333	14127
4.59400	14088
4.59467	14049
4.59533	14011
4.59600	13974
4.59667	13938
4.59733	13902
4.59800	13868
4.59867	13834
4.59933	13801
4.60000	13769
4.60067	13737
4.60133	13707
4.60200	13677
4.60267	13647
4.60333	13619
4.60400	13591
4.60467	13563
4.60533	13536
4.60600	13510
4.60667	13485
4.60733	13460
4.60800	13435
4.60867	13412
4.60933	13388
4.61000	13366
4.61067	13343
4.61133	13322
4.61200	13300
4.61267	13279
4.61333	13259
4.61400	13239
4.61467	13219
4.61533	13200
4.61600	13181
4.61667	13163
4.61733	13144
4.61800	13126
4.61867	13109
4.61933	13092
4.62000	13075
4.62067	13058
4.62133	13042
4.62200	13026
4.62267	13010
4.62333	12995
4.62400	12979
4.62467	12964
4.62533	12950
4.62600	12935
4.62667	12921
4.62733	12907
4.62800	12893
4.62867	12879
4.62933	12865
4.63000	12852
4.63067	12839
4.63133	12825
4.63200	12812
4.63267	12799
4.63333	12787
4.63400	12774
4.63467	12762
4.63533	12749
4.63600	12737
4.63667	12725
4.63733	12713
4.63800	12702
4.63867	12690
4.63933	12678
4.64000	12667
4.64067	12656
4.64133	12645
4.64200	12634
4.64267	12623
4.64333	12612
4.64400	12601
4.64467	12590
4.64533	12580
4.64600	12569
4.64667	12559
4.64733	12549
4.64800	12538
4.64867	12528
4.64933	12518
4.65000	12508
4.65067	12498
4.65133	12488
4.65200	12478
4.65267	12469
4.65333	12459
4.65400	12450
4.65467	12441
4.65533	12432
4.65600	12423
4.65667	12414
4.65733	12405
4.65800	12397
4.65867	12388
4.65933	12380
4.66000	12371
4.66067	12363
4.66133	12355
4.66200	12347
4.66267	12338
4.66333	12330
4.66400	12322
4.66467	12314
4.66533	12306
4.66600	12298
4.66667	12290
4.66733	12282
4.66800	12274
4.66867	12265
4.66933	12257
4.67000	12249
4.67067	12241
4.67133	12233
4.67200	12225
4.67267	12217
4.67333	12210
4.67400	12202
4.67467	12194
4.67533	12186
4.67600	12179
4.67667	12171
4.67733	12164
4.67800	12156
4.67867	12149
4.67933	12141
4.68000	12134
4.68067	12127
4.68133	12120
4.68200	12113
4.68267	12106
4.68333	12099
4.68400	12092
4.68467	12085
4.68533	12078
4.68600	12071
4.68667	12064
4.68733	12058
4.68800	12051
4.68867	12044
4.68933	12037
4.69000	12030
4.69067	12023
4.69133	12016
4.69200	12010
4.69267	12003
4.69333	11996
4.69400	11989
4.69467	11982
4.69533	11975
4.69600	11968
4.69667	11961
4.69733	11954
4.69800	11947
4.69867	11940
4.69933	11933
4.70000	11926
4.70067	11919
4.70133	11911
4.70200	11904
4.70267	11896
4.70333	11889
4.70400	11881
4.70467	11874
4.70533	11866
4.70600	11858
4.70667	11851
4.70733	11843
4.70800	11835
4.70867	11828
4.70933	11820
4.71000	11812
4.71067	11804
4.71133	11796
4.71200	11788
4.71267	11780
4.71333	11772
4.71400	11764
4.71467	11756
4.71533	11748
4.71600	11740
4.71667	11732
4.71733	11724
4.71800	11715
4.71867	11707
4.71933	11699
4.72000	11691
4.72067	11683
4.72133	11675
4.72200	11667
4.72267	11659
4.72333	11651
4.72400	11643
4.72467	11635
4.72533	11627
4.72600	11619
4.72667	11611
4.72733	11603
4.72800	11595
4.72867	11587
4.72933	11579
4.73000	11572
4.73067	11564
4.73133	11557
4.73200	11549
4.73267	11542
4.73333	11535
4.73400	11528
4.73467	11521
4.73533	11514
4.73600	11507
4.73667	11500
4.73733	11493
4.73800	11486
4.73867	11480
4.73933	11473
4.74000	11466
4.74067	11460
4.74133	11453
4.74200	11446
4.74267	11440
4.74333	11433
4.74400	11427
4.74467	11420
4.74533	11414
4.74600	11408
4.74667	11401
4.74733	11395
4.74800	11388
4.74867	11382
4.74933	11375
4.75000	11369
4.75067	11363
4.75133	11356
4.75200	11350
4.75267	11344
4.75333	11337
4.75400	11331
4.75467	11325
4.75533	11319
4.75600	11313
4.75667	11307
4.75733	11301
4.75800	11295
4.75867	11289
4.75933	11283
4.76000	11278
4.76067	11272
4.76133	11266
4.76200	11260
4.76267	11255
4.76333	11249
4.76400	11243
4.76467	11238
4.76533	11232
4.76600	11227
4.76667	11221
4.76733	11216
4.76800	11210
4.76867	11205
4.76933	11200
4.77000	11194
4.77067	11189
4.77133	11183
4.77200	11178
4.77267	11173
4.77333	11167
4.77400	11162
4.77467	11157
4.77533	11151
4.77600	11146
4.77667	11141
4.77733	11135
4.77800	11130
4.77867	11125
4.77933	11119
4.78000	11114
4.78067	11109
4.78133	11104
4.78200	11099
4.78267	11094
4.78333	11089
4.78400	11085
4.78467	11080
4.78533	11075
4.78600	11070
4.78667	11066
4.78733	11061
4.78800	11056
4.78867	11051
4.78933	11047
4.79000	11042
4.79067	11037
4.79133	11032
4.79200	11027
4.79267	11023
4.79333	11018
4.79400	11013
4.79467	11008
4.79533	11004
4.79600	10999
4.79667	10994
4.79733	10990
4.79800	10985
4.79867	10981
4.79933	10976
4.80000	10972
4.80067	10967
4.80133	10963
4.80200	10958
4.80267	10954
4.80333	10949
4.80400	10945
4.80467	10940
4.80533	10936
4.80600	10931
4.80667	10927
4.80733	10922
4.80800	10917
4.80867	10912
4.80933	10908
4.81000	10903
4.81067	10898
4.81133	10893
4.81200	10888
4.81267	10884
4.81333	10879
4.81400	10874
4.81467	10869
4.81533	10864
4.81600	10859
4.81667	10855
4.81733	10850
4.81800	10845
4.81867	10840
4.81933	10835
4.82000	10830
4.82067	10825
4.82133	10820
4.82200	10815
4.82267	10811
4.82333	10806
4.82400	10801
4.82467	10796
4.82533	10792
4.82600	10787
4.82667	10783
4.82733	10778
4.82800	10773
4.82867	10769
4.82933	10764
4.83000	10760
4.83067	10755
4.83133	10751
4.83200	10747
4.83267	10742
4.83333	10738
4.83400	10733
4.83467	10729
4.83533	10725
4.83600	10720
4.83667	10716
4.83733	10711
4.83800	10706
4.83867	10702
4.83933	10697
4.84000	10693
4.84067	10688
4.84133	10684
4.84200	10679
4.84267	10675
4.84333	10670
4.84400	10666
4.84467	10661
4.84533	10657
4.84600	10652
4.84667	10648
4.84733	10643
4.84800	10639
4.84867	10634
4.84933	10630
4.85000	10625
4.85067	10621
4.85133	10616
4.85200	10612
4.85267	10607
4.85333	10603
4.85400	10598
4.85467	10594
4.85533	10590
4.85600	10585
4.85667	10581
4.85733	10577
4.85800	10572
4.85867	10568
4.85933	10564
4.86000	10560
4.86067	10556
4.86133	10551
4.86200	10547
4.86267	10543
4.86333	10538
4.86400	10534
4.86467	10529
4.86533	10525
4.86600	10520
4.86667	10515
4.86733	10511
4.86800	10506
4.86867	10502
4.86933	10497
4.87000	10492
4.87067	10488
4.87133	10483
4.87200	10479
4.87267	10474
4.87333	10469
4.87400	10465
4.87467	10460
4.87533	10456
4.87600	10451
4.87667	10447
4.87733	10442
4.87800	10438
4.87867	10434
4.87933	10429
4.88000	10425
4.88067	10421
4.88133	10416
4.88200	10412
4.88267	10407
4.88333	10403
4.88400	10399
4.88467	10394
4.88533	10390
4.88600	10386
4.88667	10381
4.88733	10377
4.88800	10372
4.88867	10368
4.88933	10363
4.89000	10359
4.89067	10355
4.89133	10350
4.89200	10346
4.89267	10341
4.89333	10337
4.89400	10333
4.89467	10329
4.89533	10324
4.89600	10320
4.89667	10316
4.89733	10311
4.89800	10307
4.89867	10303
4.89933	10299
4.90000	10294
4.90067	10290
4.90133	10286
4.90200	10281
4.90267	10277
4.90333	10273
4.90400	10268
4.90467	10264
4.90533	10260
4.90600	10255
4.90667	10251
4.90733	10247
4.90800	10242
4.90867	10238
4.90933	10233
4.91000	10229
4.91067	10224
4.91133	10220
4.91200	10215
4.91267	10211
4.91333	10206
4.91400	10202
4.91467	10197
4.91533	10193
4.91600	10188
4.91667	10184
4.91733	10179
4.91800	10174
4.91867	10170
4.91933	10165
4.92000	10161
4.92067	10156
4.92133	10152
4.92200	10148
4.92267	10143
4.92333	10139
4.92400	10135
4.92467	10131
4.92533	10126
4.92600	10122
4.92667	10118
4.92733	10114
4.92800	10110
4.92867	10106
4.92933	10102
4.93000	10097
4.93067	10093
4.93133	10089
4.93200	10085
4.93267	10081
4.93333	10077
4.93400	10073
4.93467	10069
4.93533	10065
4.93600	10061
4.93667	10057
4.93733	10053
4.93800	10049
4.93867	10045
4.93933	10041
4.94000	10037
4.94067	10034
4.94133	10030
4.94200	10026
4.94267	10022
4.94333	10019
4.94400	10015
4.94467	10011
4.94533	10008
4.94600	10004
4.94667	10000
4.94733	9997
4.94800	9993
4.94867	9989
4.94933	9985
4.95000	9982
4.95067	9978
4.95133	9974
4.95200	9970
4.95267	9966
4.95333	9962
4.95400	9958
4.95467	9954
4.95533	9950
4.95600	9947
4.95667	9943
4.95733	9939
4.95800	9935
4.95867	9931
4.95933	9927
4.96000	9923
4.96067	9919
4.96133	9915
4.96200	9911
4.96267	9906
4.96333	9902
4.96400	9898
4.96467	9893
4.96533	9889
4.96600	9885
4.96667	9880
4.96733	9876
4.96800	9872
4.96867	9868
4.96933	9863
4.97000	9859
4.97067	9855
4.97133	9850
4.97200	9846
4.97267	9842
4.97333	9838
4.97400	9834
4.97467	9830
4.97533	9826
4.97600	9822
4.97667	9818
4.97733	9815
4.97800	9811
4.97867	9807
4.97933	9804
4.98000	9801
4.98067	9797
4.98133	9794
4.98200	9790
4.98267	9787
4.98333	9784
4.98400	9781
4.98467	9778
4.98533	9775
4.98600	9772
4.98667	9769
4.98733	9766
4.98800	9763
4.98867	9760
4.98933	9757
4.99000	9754
4.99067	9751
4.99133	9748
4.99200	9746
4.99267	9743
4.99333	9740
4.99400	9738
4.99467	9735
4.99533	9733
4.99600	9730
4.99667	9728
4.99733	9725
4.99800	9723
4.99867	9721
4.99933	9718
5.00000	9716
5.00067	9714
5.00133	9712
5.00200	9710
5.00267	9708
5.00333	9706
5.00400	9703
5.00467	9701
5.00533	9699
5.00600	9697
5.00667	9695
5.00733	9693
5.00800	9691
5.00867	9689
5.00933	9687
5.01000	9685
5.01067	9683
5.01133	9680
5.01200	9678
5.01267	9676
5.01333	9674
5.01400	9671
5.01467	9669
5.01533	9667
5.01600	9665
5.01667	9662
5.01733	9660
5.01800	9658
5.01867	9655
5.01933	9653
5.02000	9651
5.02067	9649
5.02133	9646
5.02200	9644
5.02267	9642
5.02333	9640
5.02400	9638
5.02467	9635
5.02533	9633
5.02600	9631
5.02667	9628
5.02733	9626
5.02800	9624
5.02867	9621
5.02933	9619
5.03000	9616
5.03067	9614
5.03133	9611
5.03200	9609
5.03267	9606
5.03333	9604
5.03400	9601
5.03467	9599
5.03533	9596
5.03600	9593
5.03667	9591
5.03733	9588
5.03800	9585
5.03867	9583
5.03933	9580
5.04000	9577
5.04067	9575
5.04133	9572
5.04200	9569
5.04267	9567
5.04333	9564
5.04400	9562
5.04467	9559
5.04533	9556
5.04600	9554
5.04667	9551
5.04733	9549
5.04800	9546
5.04867	9543
5.04933	9541
5.05000	9538
5.05067	9536
5.05133	9533
5.05200	9531
5.05267	9528
5.05333	9526
5.05400	9523
5.05467	9521
5.05533	9519
5.05600	9516
5.05667	9514
5.05733	9511
5.05800	9509
5.05867	9507
5.05933	9505
5.06000	9502
5.06067	9500
5.06133	9498
5.06200	9495
5.06267	9493
5.06333	9490
5.06400	9488
5.06467	9485
5.06533	9483
5.06600	9480
5.06667	9478
5.06733	9475
5.06800	9472
5.06867	9470
5.06933	9467
5.07000	9465
5.07067	9462
5.07133	9459
5.07200	9457
5.07267	9454
5.07333	9451
5.07400	9448
5.07467	9446
5.07533	9443
5.07600	9440
5.07667	9437
5.07733	9435
5.07800	9432
5.07867	9429
5.07933	9426
5.08000	9423
5.08067	9420
5.08133	9417
5.08200	9414
5.08267	9411
5.08333	9408
5.08400	9405
5.08467	9402
5.08533	9399
5.08600	9396
5.08667	9393
5.08733	9390
5.08800	9387
5.08867	9384
5.08933	9381
5.09000	9378
5.09067	9375
5.09133	9372
5.09200	9369
5.09267	9366
5.09333	9363
5.09400	9360
5.09467	9358
5.09533	9355
5.09600	9352
5.09667	9349
5.09733	9346
5.09800	9344
5.09867	9341
5.09933	9338
5.10000	9336
5.10067	9333
5.10133	9331
5.10200	9328
5.10267	9325
5.10333	9323
5.10400	9320
5.10467	9317
5.10533	9314
5.10600	9311
5.10667	9309
5.10733	9306
5.10800	9303
5.10867	9300
5.10933	9297
5.11000	9294
5.11067	9291
5.11133	9288
5.11200	9285
5.11267	9282
5.11333	9278
5.11400	9275
5.11467	9272
5.11533	9269
5.11600	9266
5.11667	9263
5.11733	9260
5.11800	9257
5.11867	9254
5.11933	9251
5.12000	9248
5.12067	9245
5.12133	9242
5.12200	9239
5.12267	9236
5.12333	9232
5.12400	9229
5.12467	9226
5.12533	9223
5.12600	9219
5.12667	9216
5.12733	9213
5.12800	9210
5.12867	9206
5.12933	9203
5.13000	9200
5.13067	9197
5.13133	9193
5.13200	9190
5.13267	9187
5.13333	9183
5.13400	9180
5.13467	9176
5.13533	9173
5.13600	9170
5.13667	9166
5.13733	9163
5.13800	9160
5.13867	9156
5.13933	9153
5.14000	9150
5.14067	9147
5.14133	9144
5.14200	9141
5.14267	9137
5.14333	9134
5.14400	9131
5.14467	9128
5.14533	9126
5.14600	9123
5.14667	9120
5.14733	9117
5.14800	9114
5.14867	9111
5.14933	9108
5.15000	9105
5.15067	9102
5.15133	9099
5.15200	9097
5.15267	9094
5.15333	9091
5.15400	9088
5.15467	9085
5.15533	9082
5.15600	9079
5.15667	9076
5.15733	9073
5.15800	9070
5.15867	9066
5.15933	9063
5.16000	9060
5.16067	9057
5.16133	9054
5.16200	9051
5.16267	9048
5.16333	9045
5.16400	9042
5.16467	9039
5.16533	9036
5.16600	9033
5.16667	9030
5.16733	9026
5.16800	9023
5.16867	9020
5.16933	9017
5.17000	9013
5.17067	9010
5.17133	9007
5.17200	9004
5.17267	9000
5.17333	8997
5.17400	8994
5.17467	8991
5.17533	8987
5.17600	8984
5.17667	8981
5.17733	8978
5.17800	8974
5.17867	8971
5.17933	8968
5.18000	8965
5.18067	8961
5.18133	8958
5.18200	8955
5.18267	8952
5.18333	8948
5.18400	8945
5.18467	8942
5.18533	8939
5.18600	8935
5.18667	8932
5.18733	8929
5.18800	8926
5.18867	8922
5.18933	8919
5.19000	8916
5.19067	8913
5.19133	8910
5.19200	8907
5.19267	8904
5.19333	8901
5.19400	8897
5.19467	8894
5.19533	8891
5.19600	8888
5.19667	8885
5.19733	8882
5.19800	8879
5.19867	8876
5.19933	8874
5.20000	8871
5.20067	8868
5.20133	8865
5.20200	8862
5.20267	8859
5.20333	8856
5.20400	8853
5.20467	8850
5.20533	8847
5.20600	8844
5.20667	8841
5.20733	8839
5.20800	8836
5.20867	8833
5.20933	8830
5.21000	8827
5.21067	8824
5.21133	8821
5.21200	8818
5.21267	8816
5.21333	8813
5.21400	8810
5.21467	8807
5.21533	8804
5.21600	8801
5.21667	8798
5.21733	8795
5.21800	8792
5.21867	8789
5.21933	8786
5.22000	8783
5.22067	8780
5.22133	8777
5.22200	8774
5.22267	8771
5.22333	8768
5.22400	8765
5.22467	8762
5.22533	8759
5.22600	8756
5.22667	8753
5.22733	8751
5.22800	8748
5.22867	8745
5.22933	8742
5.23000	8739
5.23067	8736
5.23133	8733
5.23200	8730
5.23267	8727
5.23333	8725
5.23400	8722
5.23467	8719
5.23533	8717
5.23600	8714
5.23667	8711
5.23733	8709
5.23800	8706
5.23867	8703
5.23933	8701
5.24000	8698
5.24067	8696
5.24133	8693
5.24200	8691
5.24267	8688
5.24333	8686
5.24400	8683
5.24467	8681
5.24533	8679
5.24600	8676
5.24667	8674
5.24733	8672
5.24800	8669
5.24867	8667
5.24933	8665
5.25000	8663
5.25067	8660
5.25133	8658
5.25200	8656
5.25267	8654
5.25333	8652
5.25400	8649
5.25467	8647
5.25533	8645
5.25600	8643
5.25667	8641
5.25733	8639
5.25800	8637
5.25867	8635
5.25933	8633
5.26000	8631
5.26067	8629
5.26133	8626
5.26200	8624
5.26267	8622
5.26333	8620
5.26400	8618
5.26467	8616
5.26533	8614
5.26600	8612
5.26667	8610
5.26733	8607
5.26800	8605
5.26867	8603
5.26933	8601
5.27000	8599
5.27067	8597
5.27133	8595
5.27200	8593
5.27267	8591
5.27333	8589
5.27400	8587
5.27467	8585
5.27533	8583
5.27600	8581
5.27667	8579
5.27733	8577
5.27800	8575
5.27867	8573
5.27933	8571
5.28000	8569
5.28067	8567
5.28133	8565
5.28200	8563
5.28267	8562
5.28333	8560
5.28400	8558
5.28467	8556
5.28533	8554
5.28600	8552
5.28667	8550
5.28733	8549
5.28800	8547
5.28867	8545
5.28933	8543
5.29000	8542
5.29067	8540
5.29133	8538
5.29200	8536
5.29267	8535
5.29333	8533
5.29400	8531
5.29467	8530
5.29533	8528
5.29600	8526
5.29667	8524
5.29733	8523
5.29800	8521
5.29867	8519
5.29933	8518
5.30000	8516
5.30067	8514
5.30133	8513
5.30200	8511
5.30267	8509
5.30333	8508
5.30400	8506
5.30467	8504
5.30533	8503
5.30600	8501
5.30667	8500
5.30733	8498
5.30800	8497
5.30867	8495
5.30933	8494
5.31000	8492
5.31067	8491
5.31133	8489
5.31200	8488
5.31267	8486
5.31333	8484
5.31400	8483
5.31467	8481
5.31533	8480
5.31600	8478
5.31667	8477
5.31733	8476
5.31800	8474
5.31867	8473
5.31933	8471
5.32000	8470
5.32067	8469
5.32133	8467
5.32200	8466
5.32267	8465
5.32333	8464
5.32400	8462
5.32467	8461
5.32533	8460
5.32600	8458
5.32667	8457
5.32733	8456
5.32800	8454
5.32867	8453
5.32933	8451
5.33000	8450
5.33067	8448
5.33133	8446
5.33200	8445
5.33267	8443
5.33333	8441
5.33400	8440
5.33467	8438
5.33533	8436
5.33600	8434
5.33667	8432
5.33733	8430
5.33800	8428
5.33867	8426
5.33933	8424
5.34000	8422
5.34067	8420
5.34133	8417
5.34200	8415
5.34267	8413
5.34333	8410
5.34400	8408
5.34467	8406
5.34533	8404
5.34600	8401
5.34667	8399
5.34733	8397
5.34800	8394
5.34867	8392
5.34933	8390
5.35000	8387
5.35067	8385
5.35133	8383
5.35200	8380
5.35267	8378
5.35333	8376
5.35400	8374
5.35467	8371
5.35533	8369
5.35600	8367
5.35667	8365
5.35733	8362
5.35800	8360
5.35867	8358
5.35933	8356
5.36000	8354
5.36067	8352
5.36133	8350
5.36200	8348
5.36267	8346
5.36333	8344
5.36400	8342
5.36467	8340
5.36533	8338
5.36600	8336
5.36667	8334
5.36733	8332
5.36800	8330
5.36867	8328
5.36933	8326
5.37000	8324
5.37067	8323
5.37133	8321
5.37200	8319
5.37267	8317
5.37333	8315
5.37400	8313
5.37467	8311
5.37533	8309
5.37600	8307
5.37667	8305
5.37733	8303
5.37800	8301
5.37867	8299
5.37933	8297
5.38000	8295
5.38067	8293
5.38133	8291
5.38200	8288
5.38267	8286
5.38333	8284
5.38400	8281
5.38467	8279
5.38533	8276
5.38600	8274
5.38667	8272
5.38733	8269
5.38800	8267
5.38867	8264
5.38933	8262
5.39000	8259
5.39067	8256
5.39133	8254
5.39200	8251
5.39267	8248
5.39333	8246
5.39400	8243
5.39467	8240
5.39533	8238
5.39600	8235
5.39667	8232
5.39733	8230
5.39800	8227
5.39867	8224
5.39933	8221
5.40000	8219
5.40067	8216
5.40133	8213
5.40200	8210
5.40267	8207
5.40333	8205
5.40400	8202
5.40467	8199
5.40533	8196
5.40600	8193
5.40667	8191
5.40733	8188
5.40800	8185
5.40867	8182
5.40933	8180
5.41000	8177
5.41067	8174
5.41133	8172
5.41200	8169
5.41267	8167
5.41333	8164
5.41400	8162
5.41467	8159
5.41533	8157
5.41600	8154
5.41667	8152
5.41733	8150
5.41800	8147
5.41867	8145
5.41933	8143
5.42000	8141
5.42067	8139
5.42133	8137
5.42200	8134
5.42267	8132
5.42333	8130
5.42400	8128
5.42467	8126
5.42533	8124
5.42600	8122
5.42667	8120
5.42733	8118
5.42800	8116
5.42867	8114
5.42933	8112
5.43000	8110
5.43067	8107
5.43133	8105
5.43200	8103
5.43267	8101
5.43333	8098
5.43400	8096
5.43467	8093
5.43533	8091
5.43600	8089
5.43667	8086
5.43733	8084
5.43800	8081
5.43867	8079
5.43933	8076
5.44000	8074
5.44067	8071
5.44133	8068
5.44200	8066
5.44267	8063
5.44333	8061
5.44400	8058
5.44467	8055
5.44533	8053
5.44600	8050
5.44667	8047
5.44733	8045
5.44800	8042
5.44867	8039
5.44933	8037
5.45000	8034
5.45067	8031
5.45133	8028
5.45200	8026
5.45267	8023
5.45333	8020
5.45400	8018
5.45467	8015
5.45533	8012
5.45600	8009
5.45667	8007
5.45733	8004
5.45800	8001
5.45867	7999
5.45933	7996
5.46000	7994
5.46067	7991
5.46133	7989
5.46200	7986
5.46267	7984
5.46333	7981
5.46400	7979
5.46467	7976
5.46533	7974
5.46600	7972
5.46667	7970
5.46733	7967
5.46800	7965
5.46867	7963
5.46933	7961
5.47000	7959
5.47067	7957
5.47133	7955
5.47200	7953
5.47267	7951
5.47333	7949
5.47400	7947
5.47467	7945
5.47533	7943
5.47600	7941
5.47667	7939
5.47733	7937
5.47800	7935
5.47867	7933
5.47933	7931
5.48000	7929
5.48067	7927
5.48133	7925
5.48200	7923
5.48267	7921
5.48333	7919
5.48400	7916
5.48467	7914
5.48533	7912
5.48600	7910
5.48667	7908
5.48733	7905
5.48800	7903
5.48867	7901
5.48933	7899
5.49000	7896
5.49067	7894
5.49133	7892
5.49200	7890
5.49267	7888
5.49333	7885
5.49400	7883
5.49467	7881
5.49533	7879
5.49600	7877
5.49667	7874
5.49733	7872
5.49800	7870
5.49867	7867
5.49933	7865
5.50000	7863
5.50067	7861
5.50133	7858
5.50200	7856
5.50267	7854
5.50333	7852
5.50400	7850
5.50467	7848
5.50533	7845
5.50600	7843
5.50667	7841
5.50733	7839
5.50800	7837
5.50867	7835
5.50933	7833
5.51000	7831
5.51067	7829
5.51133	7827
5.51200	7826
5.51267	7824
5.51333	7822
5.51400	7820
5.51467	7819
5.51533	7817
5.51600	7816
5.51667	7814
5.51733	7813
5.51800	7811
5.51867	7810
5.51933	7808
5.52000	7807
5.52067	7805
5.52133	7804
5.52200	7802
5.52267	7801
5.52333	7799
5.52400	7798
5.52467	7796
5.52533	7795
5.52600	7793
5.52667	7792
5.52733	7790
5.52800	7789
5.52867	7787
5.52933	7786
5.53000	7784
5.53067	7783
5.53133	7781
5.53200	7780
5.53267	7778
5.53333	7777
5.53400	7775
5.53467	7774
5.53533	7772
5.53600	7770
5.53667	7769
5.53733	7767
5.53800	7766
5.53867	7764
5.53933	7762
5.54000	7761
5.54067	7759
5.54133	7757
5.54200	7756
5.54267	7754
5.54333	7752
5.54400	7751
5.54467	7749
5.54533	7747
5.54600	7745
5.54667	7743
5.54733	7741
5.54800	7740
5.54867	7738
5.54933	7736
5.55000	7734
5.55067	7733
5.55133	7731
5.55200	7729
5.55267	7727
5.55333	7726
5.55400	7724
5.55467	7723
5.55533	7721
5.55600	7719
5.55667	7718
5.55733	7716
5.55800	7715
5.55867	7714
5.55933	7712
5.56000	7711
5.56067	7710
5.56133	7708
5.56200	7707
5.56267	7706
5.56333	7704
5.56400	7703
5.56467	7702
5.56533	7701
5.56600	7700
5.56667	7698
5.56733	7697
5.56800	7696
5.56867	7695
5.56933	7694
5.57000	7693
5.57067	7691
5.57133	7690
5.57200	7689
5.57267	7688
5.57333	7687
5.57400	7685
5.57467	7684
5.57533	7683
5.57600	7682
5.57667	7681
5.57733	7680
5.57800	7679
5.57867	7678
5.57933	7677
5.58000	7676
5.58067	7674
5.58133	7673
5.58200	7672
5.58267	7671
5.58333	7669
5.58400	7668
5.58467	7667
5.58533	7665
5.58600	7664
5.58667	7662
5.58733	7661
5.58800	7659
5.58867	7658
5.58933	7656
5.59000	7655
5.59067	7654
5.59133	7652
5.59200	7651
5.59267	7649
5.59333	7648
5.59400	7647
5.59467	7645
5.59533	7644
5.59600	7643
5.59667	7642
5.59733	7640
5.59800	7639
5.59867	7638
5.59933	7636
5.60000	7635
5.60067	7634
5.60133	7633
5.60200	7632
5.60267	7631
5.60333	7630
5.60400	7628
5.60467	7627
5.60533	7626
5.60600	7625
5.60667	7624
5.60733	7623
5.60800	7622
5.60867	7620
5.60933	7619
5.61000	7618
5.61067	7617
5.61133	7615
5.61200	7614
5.61267	7613
5.61333	7611
5.61400	7610
5.61467	7609
5.61533	7607
5.61600	7606
5.61667	7605
5.61733	7603
5.61800	7602
5.61867	7601
5.61933	7599
5.62000	7598
5.62067	7596
5.62133	7595
5.62200	7594
5.62267	7592
5.62333	7591
5.62400	7589
5.62467	7587
5.62533	7586
5.62600	7584
5.62667	7583
5.62733	7581
5.62800	7579
5.62867	7578
5.62933	7576
5.63000	7574
5.63067	7573
5.63133	7571
5.63200	7569
5.63267	7568
5.63333	7566
5.63400	7564
5.63467	7563
5.63533	7561
5.63600	7559
5.63667	7558
5.63733	7556
5.63800	7554
5.63867	7553
5.63933	7551
5.64000	7549
5.64067	7547
5.64133	7546
5.64200	7544
5.64267	7542
5.64333	7541
5.64400	7539
5.64467	7537
5.64533	7536
5.64600	7534
5.64667	7532
5.64733	7531
5.64800	7529
5.64867	7528
5.64933	7526
5.65000	7525
5.65067	7523
5.65133	7521
5.65200	7520
5.65267	7518
5.65333	7517
5.65400	7515
5.65467	7514
5.65533	7512
5.65600	7511
5.65667	7510
5.65733	7508
5.65800	7507
5.65867	7506
5.65933	7504
5.66000	7503
5.66067	7502
5.66133	7501
5.66200	7499
5.66267	7498
5.66333	7497
5.66400	7496
5.66467	7494
5.66533	7493
5.66600	7492
5.66667	7491
5.66733	7490
5.66800	7489
5.66867	7488
5.66933	7487
5.67000	7486
5.67067	7485
5.67133	7484
5.67200	7483
5.67267	7482
5.67333	7481
5.67400	7480
5.67467	7479
5.67533	7478
5.67600	7477
5.67667	7476
5.67733	7475
5.67800	7474
5.67867	7473
5.67933	7472
5.68000	7471
5.68067	7470
5.68133	7469
5.68200	7468
5.68267	7466
5.68333	7465
5.68400	7464
5.68467	7463
5.68533	7462
5.68600	7461
5.68667	7460
5.68733	7459
5.68800	7458
5.68867	7457
5.68933	7456
5.69000	7455
5.69067	7454
5.69133	7453
5.69200	7452
5.69267	7451
5.69333	7450
5.69400	7449
5.69467	7448
5.69533	7447
5.69600	7446
5.69667	7445
5.69733	7444
5.69800	7443
5.69867	7442
5.69933	7441
5.70000	7440
5.70067	7439
5.70133	7438
5.70200	7437
5.70267	7436
5.70333	7435
5.70400	7434
5.70467	7433
5.70533	7432
5.70600	7431
5.70667	7430
5.70733	7429
5.70800	7428
5.70867	7427
5.70933	7426
5.71000	7425
5.71067	7424
5.71133	7423
5.71200	7422
5.71267	7421
5.71333	7420
5.71400	7419
5.71467	7418
5.71533	7417
5.71600	7416
5.71667	7415
5.71733	7414
5.71800	7413
5.71867	7412
5.71933	7411
5.72000	7410
5.72067	7408
5.72133	7407
5.72200	7406
5.72267	7405
5.72333	7404
5.72400	7403
5.72467	7402
5.72533	7401
5.72600	7400
5.72667	7398
5.72733	7397
5.72800	7396
5.72867	7395
5.72933	7394
5.73000	7393
5.73067	7392
5.73133	7390
5.73200	7389
5.73267	7388
5.73333	7387
5.73400	7386
5.73467	7385
5.73533	7383
5.73600	7382
5.73667	7381
5.73733	7380
5.73800	7378
5.73867	7377
5.73933	7376
5.74000	7375
5.74067	7373
5.74133	7372
5.74200	7371
5.74267	7370
5.74333	7369
5.74400	7368
5.74467	7367
5.74533	7366
5.74600	7365
5.74667	7364
5.74733	7363
5.74800	7362
5.74867	7361
5.74933	7360
5.75000	7360
5.75067	7359
5.75133	7358
5.75200	7357
5.75267	7357
5.75333	7356
5.75400	7356
5.75467	7355
5.75533	7354
5.75600	7354
5.75667	7353
5.75733	7352
5.75800	7352
5.75867	7351
5.75933	7350
5.76000	7350
5.76067	7349
5.76133	7349
5.76200	7348
5.76267	7348
5.76333	7347
5.76400	7347
5.76467	7347
5.76533	7346
5.76600	7346
5.76667	7346
5.76733	7345
5.76800	7345
5.76867	7345
5.76933	7345
5.77000	7344
5.77067	7344
5.77133	7344
5.77200	7344
5.77267	7344
5.77333	7344
5.77400	7344
5.77467	7343
5.77533	7343
5.77600	7343
5.77667	7343
5.77733	7343
5.77800	7343
5.77867	7343
5.77933	7343
5.78000	7343
5.78067	7343
5.78133	7343
5.78200	7343
5.78267	7343
5.78333	7343
5.78400	7343
5.78467	7343
5.78533	7343
5.78600	7344
5.78667	7344
5.78733	7344
5.78800	7344
5.78867	7344
5.78933	7344
5.79000	7345
5.79067	7345
5.79133	7345
5.79200	7346
5.79267	7346
5.79333	7347
5.79400	7347
5.79467	7348
5.79533	7348
5.79600	7349
5.79667	7350
5.79733	7350
5.79800	7351
5.79867	7352
5.79933	7352
5.80000	7353
5.80067	7354
5.80133	7355
5.80200	7355
5.80267	7356
5.80333	7357
5.80400	7358
5.80467	7359
5.80533	7360
5.80600	7361
5.80667	7362
5.80733	7363
5.80800	7364
5.80867	7366
5.80933	7367
5.81000	7368
5.81067	7369
5.81133	7371
5.81200	7372
5.81267	7373
5.81333	7375
5.81400	7376
5.81467	7377
5.81533	7379
5.81600	7380
5.81667	7381
5.81733	7383
5.81800	7384
5.81867	7385
5.81933	7387
5.82000	7388
5.82067	7389
5.82133	7391
5.82200	7392
5.82267	7393
5.82333	7395
5.82400	7396
5.82467	7398
5.82533	7399
5.82600	7401
5.82667	7402
5.82733	7403
5.82800	7405
5.82867	7406
5.82933	7407
5.83000	7409
5.83067	7410
5.83133	7411
5.83200	7413
5.83267	7414
5.83333	7415
5.83400	7417
5.83467	7418
5.83533	7419
5.83600	7421
5.83667	7422
5.83733	7423
5.83800	7424
5.83867	7426
5.83933	7427
5.84000	7428
5.84067	7430
5.84133	7431
5.84200	7432
5.84267	7433
5.84333	7434
5.84400	7435
5.84467	7436
5.84533	7437
5.84600	7438
5.84667	7439
5.84733	7440
5.84800	7441
5.84867	7442
5.84933	7443
5.85000	7443
5.85067	7444
5.85133	7445
5.85200	7446
5.85267	7447
5.85333	7448
5.85400	7449
5.85467	7449
5.85533	7450
5.85600	7451
5.85667	7452
5.85733	7453
5.85800	7453
5.85867	7454
5.85933	7455
5.86000	7456
5.86067	7456
5.86133	7457
5.86200	7457
5.86267	7458
5.86333	7458
5.86400	7459
5.86467	7459
5.86533	7460
5.86600	7460
5.86667	7460
5.86733	7460
5.86800	7461
5.86867	7461
5.86933	7461
5.87000	7461
5.87067	7461
5.87133	7461
5.87200	7461
5.87267	7461
5.87333	7460
5.87400	7460
5.87467	7460
5.87533	7459
5.87600	7459
5.87667	7459
5.87733	7458
5.87800	7458
5.87867	7457
5.87933	7457
5.88000	7456
5.88067	7455
5.88133	7455
5.88200	7454
5.88267	7453
5.88333	7452
5.88400	7451
5.88467	7450
5.88533	7449
5.88600	7448
5.88667	7447
5.88733	7446
5.88800	7445
5.88867	7444
5.88933	7443
5.89000	7442
5.89067	7440
5.89133	7439
5.89200	7438
5.89267	7437
5.89333	7436
5.89400	7434
5.89467	7433
5.89533	7432
5.89600	7430
5.89667	7429
5.89733	7427
5.89800	7426
5.89867	7424
5.89933	7423
5.90000	7421
5.90067	7419
5.90133	7418
5.90200	7416
5.90267	7414
5.90333	7413
5.90400	7411
5.90467	7409
5.90533	7407
5.90600	7405
5.90667	7404
5.90733	7402
5.90800	7400
5.90867	7398
5.90933	7396
5.91000	7394
5.91067	7391
5.91133	7389
5.91200	7387
5.91267	7385
5.91333	7382
5.91400	7380
5.91467	7377
5.91533	7375
5.91600	7372
5.91667	7370
5.91733	7367
5.91800	7364
5.91867	7361
5.91933	7358
5.92000	7356
5.92067	7353
5.92133	7350
5.92200	7347
5.92267	7344
5.92333	7341
5.92400	7338
5.92467	7335
5.92533	7332
5.92600	7329
5.92667	7326
5.92733	7323
5.92800	7320
5.92867	7317
5.92933	7314
5.93000	7312
5.93067	7309
5.93133	7306
5.93200	7303
5.93267	7301
5.93333	7298
5.93400	7295
5.93467	7292
5.93533	7290
5.93600	7287
5.93667	7284
5.93733	7281
5.93800	7278
5.93867	7276
5.93933	7273
5.94000	7270
5.94067	7268
5.94133	7265
5.94200	7262
5.94267	7260
5.94333	7257
5.94400	7254
5.94467	7252
5.94533	7249
5.94600	7246
5.94667	7244
5.94733	7241
5.94800	7239
5.94867	7236
5.94933	7233
5.95000	7231
5.95067	7228
5.95133	7226
5.95200	7224
5.95267	7221
5.95333	7219
5.95400	7216
5.95467	7214
5.95533	7211
5.95600	7209
5.95667	7207
5.95733	7204
5.95800	7202
5.95867	7200
5.95933	7198
5.96000	7195
5.96067	7193
5.96133	7191
5.96200	7189
5.96267	7187
5.96333	7185
5.96400	7183
5.96467	7181
5.96533	7179
5.96600	7177
5.96667	7175
5.96733	7173
5.96800	7171
5.96867	7169
5.96933	7167
5.97000	7166
5.97067	7164
5.97133	7162
5.97200	7160
5.97267	7158
5.97333	7157
5.97400	7155
5.97467	7154
5.97533	7152
5.97600	7151
5.97667	7149
5.97733	7148
5.97800	7146
5.97867	7145
5.97933	7144
5.98000	7142
5.98067	7141
5.98133	7140
5.98200	7138
5.98267	7137
5.98333	7136
5.98400	7134
5.98467	7133
5.98533	7132
5.98600	7131
5.98667	7129
5.98733	7128
5.98800	7127
5.98867	7126
5.98933	7125
5.99000	7124
5.99067	7123
5.99133	7122
5.99200	7120
5.99267	7119
5.99333	7118
5.99400	7117
5.99467	7116
5.99533	7115
5.99600	7114
5.99667	7113
5.99733	7113
5.99800	7112
5.99867	7111
5.99933	7110
6.00000	7109
6.00067	7108
6.00133	7107
6.00200	7107
6.00267	7106
6.00333	7105
6.00400	7104
6.00467	7103
6.00533	7103
6.00600	7102
6.00667	7101
6.00733	7100
6.00800	7100
6.00867	7099
6.00933	7098
6.01000	7098
6.01067	7097
6.01133	7097
6.01200	7096
6.01267	7096
6.01333	7095
6.01400	7094
6.01467	7094
6.01533	7093
6.01600	7093
6.01667	7092
6.01733	7092
6.01800	7091
6.01867	7091
6.01933	7091
6.02000	7090
6.02067	7090
6.02133	7089
6.02200	7089
6.02267	7088
6.02333	7088
6.02400	7087
6.02467	7087
6.02533	7086
6.02600	7086
6.02667	7085
6.02733	7085
6.02800	7084
6.02867	7084
6.02933	7083
6.03000	7083
6.03067	7082
6.03133	7082
6.03200	7081
6.03267	7080
6.03333	7080
6.03400	7079
6.03467	7079
6.03533	7078
6.03600	7077
6.03667	7077
6.03733	7076
6.03800	7075
6.03867	7075
6.03933	7074
6.04000	7074
6.04067	7073
6.04133	7072
6.04200	7072
6.04267	7071
6.04333	7070
6.04400	7070
6.04467	7069
6.04533	7068
6.04600	7067
6.04667	7066
6.04733	7066
6.04800	7065
6.04867	7064
6.04933	7063
6.05000	7062
6.05067	7061
6.05133	7060
6.05200	7059
6.05267	7058
6.05333	7057
6.05400	7056
6.05467	7055
6.05533	7054
6.05600	7053
6.05667	7052
6.05733	7051
6.05800	7050
6.05867	7049
6.05933	7048
6.06000	7047
6.06067	7045
6.06133	7044
6.06200	7043
6.06267	7042
6.06333	7041
6.06400	7040
6.06467	7038
6.06533	7037
6.06600	7036
6.06667	7035
6.06733	7034
6.06800	7033
6.06867	7032
6.06933	7031
6.07000	7030
6.07067	7029
6.07133	7028
6.07200	7027
6.07267	7026
6.07333	7025
6.07400	7024
6.07467	7023
6.07533	7022
6.07600	7021
6.07667	7020
6.07733	7019
6.07800	7018
6.07867	7017
6.07933	7016
6.08000	7014
6.08067	7013
6.08133	7012
6.08200	7011
6.08267	7010
6.08333	7009
6.08400	7008
6.08467	7007
6.08533	7005
6.08600	7004
6.08667	7003
6.08733	7002
6.08800	7001
6.08867	6999
6.08933	6998
6.09000	6997
6.09067	6996
6.09133	6994
6.09200	6993
6.09267	6992
6.09333	6990
6.09400	6989
6.09467	6987
6.09533	6986
6.09600	6985
6.09667	6983
6.09733	6982
6.09800	6981
6.09867	6979
6.09933	6978
6.10000	6977
6.10067	6975
6.10133	6974
6.10200	6972
6.10267	6971
6.10333	6969
6.10400	6968
6.10467	6967
6.10533	6965
6.10600	6964
6.10667	6963
6.10733	6962
6.10800	6960
6.10867	6959
6.10933	6958
6.11000	6957
6.11067	6956
6.11133	6954
6.11200	6953
6.11267	6952
6.11333	6951
6.11400	6950
6.11467	6949
6.11533	6947
6.11600	6946
6.11667	6945
6.11733	6944
6.11800	6943
6.11867	6942
6.11933	6941
6.12000	6940
6.12067	6939
6.12133	6938
6.12200	6937
6.12267	6936
6.12333	6935
6.12400	6934
6.12467	6933
6.12533	6932
6.12600	6931
6.12667	6930
6.12733	6929
6.12800	6928
6.12867	6927
6.12933	6926
6.13000	6925
6.13067	6924
6.13133	6923
6.13200	6922
6.13267	6921
6.13333	6920
6.13400	6919
6.13467	6918
6.13533	6916
6.13600	6915
6.13667	6914
6.13733	6913
6.13800	6912
6.13867	6911
6.13933	6910
6.14000	6908
6.14067	6907
6.14133	6906
6.14200	6905
6.14267	6904
6.14333	6903
6.14400	6902
6.14467	6901
6.14533	6900
6.14600	6899
6.14667	6898
6.14733	6897
6.14800	6896
6.14867	6896
6.14933	6895
6.15000	6894
6.15067	6893
6.15133	6892
6.15200	6891
6.15267	6891
6.15333	6890
6.15400	6889
6.15467	6888
6.15533	6888
6.15600	6887
6.15667	6886
6.15733	6885
6.15800	6885
6.15867	6884
6.15933	6883
6.16000	6883
6.16067	6882
6.16133	6881
6.16200	6880
6.16267	6879
6.16333	6879
6.16400	6878
6.16467	6877
6.16533	6876
6.16600	6875
6.16667	6875
6.16733	6874
6.16800	6873
6.16867	6872
6.16933	6871
6.17000	6871
6.17067	6870
6.17133	6869
6.17200	6868
6.17267	6867
6.17333	6866
6.17400	6865
6.17467	6864
6.17533	6864
6.17600	6863
6.17667	6862
6.17733	6861
6.17800	6860
6.17867	6859
6.17933	6859
6.18000	6858
6.18067	6857
6.18133	6856
6.18200	6856
6.18267	6855
6.18333	6854
6.18400	6854
6.18467	6853
6.18533	6852
6.18600	6852
6.18667	6851
6.18733	6851
6.18800	6850
6.18867	6849
6.18933	6849
6.19000	6848
6.19067	6848
6.19133	6847
6.19200	6846
6.19267	6846
6.19333	6846
6.19400	6845
6.19467	6845
6.19533	6844
6.19600	6844
6.19667	6843
6.19733	6843
6.19800	6842
6.19867	6842
6.19933	6841
6.20000	6841
6.20067	6840
6.20133	6840
6.20200	6839
6.20267	6839
6.20333	6838
6.20400	6838
6.20467	6837
6.20533	6837
6.20600	6836
6.20667	6836
6.20733	6835
6.20800	6835
6.20867	6834
6.20933	6834
6.21000	6833
6.21067	6833
6.21133	6833
6.21200	6832
6.21267	6832
6.21333	6831
6.21400	6831
6.21467	6831
6.21533	6830
6.21600	6830
6.21667	6830
6.21733	6829
6.21800	6829
6.21867	6829
6.21933	6828
6.22000	6828
6.22067	6828
6.22133	6827
6.22200	6827
6.22267	6827
6.22333	6826
6.22400	6826
6.22467	6826
6.22533	6826
6.22600	6825
6.22667	6825
6.22733	6825
6.22800	6824
6.22867	6824
6.22933	6824
6.23000	6824
6.23067	6823
6.23133	6823
6.23200	6823
6.23267	6823
6.23333	6822
6.23400	6822
6.23467	6822
6.23533	6821
6.23600	6821
6.23667	6821
6.23733	6820
6.23800	6820
6.23867	6820
6.23933	6819
6.24000	6819
6.24067	6819
6.24133	6818
6.24200	6818
6.24267	6818
6.24333	6817
6.24400	6817
6.24467	6816
6.24533	6816
6.24600	6816
6.24667	6815
6.24733	6815
6.24800	6814
6.24867	6814
6.24933	6814
6.25000	6813
6.25067	6813
6.25133	6813
6.25200	6812
6.25267	6812
6.25333	6812
6.25400	6812
6.25467	6811
6.25533	6811
6.25600	6811
6.25667	6811
6.25733	6811
6.25800	6811
6.25867	6811
6.25933	6811
6.26000	6811
6.26067	6811
6.26133	6811
6.26200	6811
6.26267	6811
6.26333	6811
6.26400	6811
6.26467	6811
6.26533	6811
6.26600	6812
6.26667	6812
6.26733	6812
6.26800	6812
6.26867	6813
6.26933	6813
6.27000	6813
6.27067	6813
6.27133	6813
6.27200	6814
6.27267	6814
6.27333	6814
6.27400	6814
6.27467	6814
6.27533	6814
6.27600	6814
6.27667	6814
6.27733	6815
6.27800	6815
6.27867	6815
6.27933	6815
6.28000	6814
6.28067	6814
6.28133	6814
6.28200	6814
6.28267	6814
6.28333	6814
6.28400	6814
6.28467	6813
6.28533	6813
6.28600	6813
6.28667	6813
6.28733	6813
6.28800	6813
6.28867	6812
6.28933	6812
6.29000	6812
6.29067	6812
6.29133	6811
6.29200	6811
6.29267	6811
6.29333	6811
6.29400	6810
6.29467	6810
6.29533	6810
6.29600	6810
6.29667	6810
6.29733	6810
6.29800	6809
6.29867	6809
6.29933	6809
6.30000	6809
6.30067	6809
6.30133	6809
6.30200	6809
6.30267	6809
6.30333	6809
6.30400	6809
6.30467	6810
6.30533	6810
6.30600	6810
6.30667	6810
6.30733	6810
6.30800	6810
6.30867	6810
6.30933	6810
6.31000	6811
6.31067	6811
6.31133	6811
6.31200	6811
6.31267	6811
6.31333	6811
6.31400	6811
6.31467	6811
6.31533	6812
6.31600	6812
6.31667	6812
6.31733	6812
6.31800	6812
6.31867	6812
6.31933	6812
6.32000	6812
6.32067	6811
6.32133	6811
6.32200	6811
6.32267	6811
6.32333	6811
6.32400	6811
6.32467	6811
6.32533	6811
6.32600	6810
6.32667	6810
6.32733	6810
6.32800	6810
6.32867	6809
6.32933	6809
6.33000	6809
6.33067	6809
6.33133	6808
6.33200	6808
6.33267	6808
6.33333	6808
6.33400	6807
6.33467	6807
6.33533	6807
6.33600	6806
6.33667	6806
6.33733	6806
6.33800	6805
6.33867	6805
6.33933	6805
6.34000	6804
6.34067	6804
6.34133	6803
6.34200	6803
6.34267	6803
6.34333	6802
6.34400	6802
6.34467	6802
6.34533	6801
6.34600	6801
6.34667	6800
6.34733	6800
6.34800	6800
6.34867	6799
6.34933	6799
6.35000	6799
6.35067	6798
6.35133	6798
6.35200	6798
6.35267	6798
6.35333	6797
6.35400	6797
6.35467	6797
6.35533	6797
6.35600	6797
6.35667	6796
6.35733	6796
6.35800	6796
6.35867	6796
6.35933	6796
6.36000	6795
6.36067	6795
6.36133	6795
6.36200	6794
6.36267	6794
6.36333	6794
6.36400	6793
6.36467	6793
6.36533	6793
6.36600	6792
6.36667	6792
6.36733	6792
6.36800	6791
6.36867	6791
6.36933	6791
6.37000	6790
6.37067	6790
6.37133	6789
6.37200	6789
6.37267	6788
6.37333	6788
6.37400	6787
6.37467	6787
6.37533	6786
6.37600	6786
6.37667	6785
6.37733	6785
6.37800	6784
6.37867	6783
6.37933	6783
6.38000	6782
6.38067	6781
6.38133	6781
6.38200	6780
6.38267	6779
6.38333	6779
6.38400	6778
6.38467	6777
6.38533	6777
6.38600	6776
6.38667	6775
6.38733	6775
6.38800	6774
6.38867	6774
6.38933	6773
6.39000	6772
6.39067	6772
6.39133	6771
6.39200	6770
6.39267	6770
6.39333	6769
6.39400	6769
6.39467	6768
6.39533	6768
6.39600	6767
6.39667	6766
6.39733	6766
6.39800	6765
6.39867	6765
6.39933	6764

