[Header]
Application Name	LabSolutions
Version	5.73
Data File Name	C:\LabSolutions\Data\Project1\stephen\2016-01-11\500_benzil.gcd
Output Date	1/11/2016
Output Time	1:18:01 PM

[Configuration]
Instrument Name	WEISSTA-PC-Instrument1
Instrument #	1
Line #	1
# of Detectors	1
Detector ID	DET#2
Detector Name	DFID1
# of Channels	1

[Chromatogram (Ch1)]
Interval(msec)	40
# of Points	9600
Start Time(min)	0.000
End Time(min)	6.399
R.Time (min)	Intensity
0.00000	-6
0.00067	-6
0.00133	-6
0.00200	-6
0.00267	-6
0.00333	-6
0.00400	-6
0.00467	-6
0.00533	-6
0.00600	-6
0.00667	-6
0.00733	-6
0.00800	-6
0.00867	-7
0.00933	-7
0.01000	-8
0.01067	-8
0.01133	-9
0.01200	-10
0.01267	-12
0.01333	-13
0.01400	-14
0.01467	-16
0.01533	-18
0.01600	-20
0.01667	-22
0.01733	-25
0.01800	-27
0.01867	-30
0.01933	-32
0.02000	-35
0.02067	-38
0.02133	-41
0.02200	-44
0.02267	-48
0.02333	-51
0.02400	-55
0.02467	-58
0.02533	-62
0.02600	-66
0.02667	-70
0.02733	-74
0.02800	-77
0.02867	-81
0.02933	-85
0.03000	-89
0.03067	-93
0.03133	-96
0.03200	-100
0.03267	-104
0.03333	-108
0.03400	-111
0.03467	-115
0.03533	-118
0.03600	-122
0.03667	-125
0.03733	-128
0.03800	-131
0.03867	-135
0.03933	-138
0.04000	-141
0.04067	-144
0.04133	-147
0.04200	-150
0.04267	-153
0.04333	-155
0.04400	-158
0.04467	-161
0.04533	-164
0.04600	-167
0.04667	-169
0.04733	-172
0.04800	-174
0.04867	-177
0.04933	-180
0.05000	-182
0.05067	-185
0.05133	-187
0.05200	-190
0.05267	-192
0.05333	-194
0.05400	-197
0.05467	-199
0.05533	-201
0.05600	-204
0.05667	-206
0.05733	-208
0.05800	-210
0.05867	-213
0.05933	-215
0.06000	-217
0.06067	-219
0.06133	-222
0.06200	-224
0.06267	-226
0.06333	-228
0.06400	-230
0.06467	-233
0.06533	-235
0.06600	-237
0.06667	-239
0.06733	-241
0.06800	-243
0.06867	-245
0.06933	-247
0.07000	-249
0.07067	-250
0.07133	-252
0.07200	-254
0.07267	-256
0.07333	-258
0.07400	-259
0.07467	-261
0.07533	-262
0.07600	-264
0.07667	-265
0.07733	-267
0.07800	-268
0.07867	-267
0.07933	-256
0.08000	-223
0.08067	-156
0.08133	-45
0.08200	133
0.08267	371
0.08333	695
0.08400	1107
0.08467	1592
0.08533	2186
0.08600	2902
0.08667	3714
0.08733	4653
0.08800	5740
0.08867	6987
0.08933	8366
0.09000	9919
0.09067	11670
0.09133	13621
0.09200	15739
0.09267	18017
0.09333	20452
0.09400	23007
0.09467	25664
0.09533	28443
0.09600	31288
0.09667	34201
0.09733	37162
0.09800	40113
0.09867	43068
0.09933	46032
0.10000	49006
0.10067	51977
0.10133	54961
0.10200	57900
0.10267	60809
0.10333	63650
0.10400	66373
0.10467	68981
0.10533	71505
0.10600	73919
0.10667	76205
0.10733	78375
0.10800	80457
0.10867	82419
0.10933	84269
0.11000	86001
0.11067	87631
0.11133	89140
0.11200	90555
0.11267	91827
0.11333	92956
0.11400	93971
0.11467	94873
0.11533	95672
0.11600	96370
0.11667	96991
0.11733	97532
0.11800	97973
0.11867	98335
0.11933	98571
0.12000	98704
0.12067	98746
0.12133	98708
0.12200	98702
0.12267	99361
0.12333	102753
0.12400	114511
0.12467	146750
0.12533	223392
0.12600	382306
0.12667	674692
0.12733	1155501
0.12800	1881415
0.12867	2901229
0.12933	4258962
0.13000	5985340
0.13067	8098599
0.13133	10604243
0.13200	13499327
0.13267	16773012
0.13333	20409861
0.13400	24390173
0.13467	28691567
0.13533	33290477
0.13600	38162679
0.13667	43283618
0.13733	48628606
0.13800	54173415
0.13867	59895314
0.13933	65772733
0.14000	71785245
0.14067	77914331
0.14133	84142621
0.14200	90453643
0.14267	96831750
0.14333	103262119
0.14400	109731118
0.14467	116225899
0.14533	122734402
0.14600	129245561
0.14667	135748894
0.14733	142234741
0.14800	148694472
0.14867	155119719
0.14933	161502903
0.15000	167837475
0.15067	174117442
0.15133	180336897
0.15200	186490837
0.15267	192574091
0.15333	198582323
0.15400	204511573
0.15467	210358350
0.15533	216119012
0.15600	221790572
0.15667	227370808
0.15733	232857389
0.15800	238248413
0.15867	243542311
0.15933	248737923
0.16000	253834381
0.16067	258829890
0.16133	263723385
0.16200	268514055
0.16267	273201484
0.16333	277785375
0.16400	282265494
0.16467	286641967
0.16533	290914941
0.16600	295084690
0.16667	299151603
0.16733	303116089
0.16800	306979105
0.16867	310741824
0.16933	314405296
0.17000	317970344
0.17067	321437815
0.17133	324809001
0.17200	328085753
0.17267	331268862
0.17333	334359304
0.17400	337358338
0.17467	340267482
0.17533	343088402
0.17600	345822581
0.17667	348471530
0.17733	351037005
0.17800	353520448
0.17867	355923280
0.17933	358246778
0.18000	360492327
0.18067	362660417
0.18133	364749689
0.18200	366757873
0.18267	368677457
0.18333	370468942
0.18400	372049639
0.18467	373358010
0.18533	374381202
0.18600	375125933
0.18667	375601157
0.18733	375815585
0.18800	375777339
0.18867	375494379
0.18933	374974108
0.19000	374223918
0.19067	373250534
0.19133	372060763
0.19200	370660710
0.19267	369056512
0.19333	367254290
0.19400	365260308
0.19467	363080611
0.19533	360721271
0.19600	358188283
0.19667	355487736
0.19733	352625767
0.19800	349608581
0.19867	346442606
0.19933	343134240
0.20000	339690080
0.20067	336116691
0.20133	332420925
0.20200	328609577
0.20267	324689704
0.20333	320668355
0.20400	316552821
0.20467	312350346
0.20533	308068317
0.20600	303714033
0.20667	299294868
0.20733	294818065
0.20800	290290846
0.20867	285720260
0.20933	281113256
0.21000	276476525
0.21067	271816546
0.21133	267139533
0.21200	262451486
0.21267	257758158
0.21333	253065054
0.21400	248377427
0.21467	243700257
0.21533	239038256
0.21600	234395863
0.21667	229777275
0.21733	225186416
0.21800	220626963
0.21867	216102337
0.21933	211615732
0.22000	207170101
0.22067	202768174
0.22133	198412456
0.22200	194105253
0.22267	189848661
0.22333	185644589
0.22400	181494754
0.22467	177400702
0.22533	173363811
0.22600	169385300
0.22667	165466228
0.22733	161607518
0.22800	157809950
0.22867	154074182
0.22933	150400745
0.23000	146790055
0.23067	143242423
0.23133	139758058
0.23200	136337074
0.23267	132979498
0.23333	129685272
0.23400	126454261
0.23467	123286257
0.23533	120180981
0.23600	117138098
0.23667	114157210
0.23733	111237874
0.23800	108379590
0.23867	105581816
0.23933	102843969
0.24000	100165424
0.24067	97545524
0.24133	94983583
0.24200	92478888
0.24267	90030700
0.24333	87638256
0.24400	85300772
0.24467	83017449
0.24533	80787470
0.24600	78610008
0.24667	76484224
0.24733	74409269
0.24800	72384287
0.24867	70408418
0.24933	68480795
0.25000	66600549
0.25067	64766810
0.25133	62978709
0.25200	61235375
0.25267	59535941
0.25333	57879543
0.25400	56265320
0.25467	54692419
0.25533	53159990
0.25600	51667188
0.25667	50213178
0.25733	48797130
0.25800	47418225
0.25867	46075651
0.25933	44768608
0.26000	43496303
0.26067	42257954
0.26133	41052787
0.26200	39880039
0.26267	38738960
0.26333	37628810
0.26400	36548862
0.26467	35498397
0.26533	34476712
0.26600	33483112
0.26667	32516915
0.26733	31577453
0.26800	30664067
0.26867	29776112
0.26933	28912953
0.27000	28073968
0.27067	27258549
0.27133	26466097
0.27200	25696024
0.27267	24947757
0.27333	24220736
0.27400	23514409
0.27467	22828237
0.27533	22161692
0.27600	21514257
0.27667	20885426
0.27733	20274707
0.27800	19681616
0.27867	19105682
0.27933	18546443
0.28000	18003449
0.28067	17476260
0.28133	16964444
0.28200	16467583
0.28267	15985266
0.28333	15517094
0.28400	15062675
0.28467	14621628
0.28533	14193583
0.28600	13778177
0.28667	13375056
0.28733	12983875
0.28800	12604298
0.28867	12235998
0.28933	11878653
0.29000	11531954
0.29067	11195598
0.29133	10869289
0.29200	10552737
0.29267	10245665
0.29333	9947798
0.29400	9658872
0.29467	9378628
0.29533	9106814
0.29600	8843184
0.29667	8587501
0.29733	8339531
0.29800	8099049
0.29867	7865835
0.29933	7639676
0.30000	7420364
0.30067	7207695
0.30133	7001474
0.30200	6801510
0.30267	6607617
0.30333	6419615
0.30400	6237327
0.30467	6060585
0.30533	5889220
0.30600	5723073
0.30667	5561986
0.30733	5405806
0.30800	5254387
0.30867	5107584
0.30933	4965257
0.31000	4827272
0.31067	4693496
0.31133	4563802
0.31200	4438066
0.31267	4316169
0.31333	4197992
0.31400	4083422
0.31467	3972347
0.31533	3864663
0.31600	3760263
0.31667	3659049
0.31733	3560923
0.31800	3465789
0.31867	3373555
0.31933	3284133
0.32000	3197437
0.32067	3113383
0.32133	3031888
0.32200	2952874
0.32267	2876263
0.32333	2801981
0.32400	2729955
0.32467	2660114
0.32533	2592392
0.32600	2526722
0.32667	2463040
0.32733	2401284
0.32800	2341393
0.32867	2283309
0.32933	2226976
0.33000	2172339
0.33067	2119346
0.33133	2067944
0.33200	2018083
0.33267	1969717
0.33333	1922798
0.33400	1877280
0.33467	1833121
0.33533	1790276
0.33600	1748705
0.33667	1708367
0.33733	1669225
0.33800	1631240
0.33867	1594375
0.33933	1558597
0.34000	1523869
0.34067	1490161
0.34133	1457440
0.34200	1425675
0.34267	1394835
0.34333	1364892
0.34400	1335818
0.34467	1307586
0.34533	1280168
0.34600	1253540
0.34667	1227677
0.34733	1202555
0.34800	1178150
0.34867	1154440
0.34933	1131402
0.35000	1109016
0.35067	1087262
0.35133	1066119
0.35200	1045568
0.35267	1025590
0.35333	1006168
0.35400	987285
0.35467	968923
0.35533	951067
0.35600	933699
0.35667	916806
0.35733	900372
0.35800	884383
0.35867	868825
0.35933	853686
0.36000	838951
0.36067	824608
0.36133	810645
0.36200	797050
0.36267	783812
0.36333	770921
0.36400	758365
0.36467	746133
0.36533	734216
0.36600	722605
0.36667	711289
0.36733	700260
0.36800	689508
0.36867	679026
0.36933	668806
0.37000	658838
0.37067	649117
0.37133	639634
0.37200	630381
0.37267	621354
0.37333	612543
0.37400	603944
0.37467	595548
0.37533	587351
0.37600	579346
0.37667	571528
0.37733	563891
0.37800	556430
0.37867	549139
0.37933	542014
0.38000	535050
0.38067	528242
0.38133	521585
0.38200	515076
0.38267	508709
0.38333	502481
0.38400	496386
0.38467	490423
0.38533	484586
0.38600	478873
0.38667	473280
0.38733	467803
0.38800	462439
0.38867	457185
0.38933	452038
0.39000	446995
0.39067	442053
0.39133	437210
0.39200	432461
0.39267	427806
0.39333	423240
0.39400	418763
0.39467	414371
0.39533	410061
0.39600	405833
0.39667	401684
0.39733	397612
0.39800	393614
0.39867	389689
0.39933	385835
0.40000	382050
0.40067	378332
0.40133	374680
0.40200	371091
0.40267	367564
0.40333	364098
0.40400	360691
0.40467	357341
0.40533	354048
0.40600	350809
0.40667	347623
0.40733	344488
0.40800	341404
0.40867	338370
0.40933	335384
0.41000	332445
0.41067	329551
0.41133	326703
0.41200	323898
0.41267	321136
0.41333	318416
0.41400	315737
0.41467	313097
0.41533	310496
0.41600	307933
0.41667	305407
0.41733	302919
0.41800	300467
0.41867	298050
0.41933	295668
0.42000	293322
0.42067	291011
0.42133	288734
0.42200	286490
0.42267	284281
0.42333	282106
0.42400	279963
0.42467	277852
0.42533	275772
0.42600	273721
0.42667	271698
0.42733	269704
0.42800	267735
0.42867	265793
0.42933	263875
0.43000	261981
0.43067	260110
0.43133	258262
0.43200	256435
0.43267	254629
0.43333	252844
0.43400	251080
0.43467	249336
0.43533	247611
0.43600	245905
0.43667	244218
0.43733	242550
0.43800	240899
0.43867	239266
0.43933	237651
0.44000	236052
0.44067	234471
0.44133	232905
0.44200	231356
0.44267	229823
0.44333	228305
0.44400	226803
0.44467	225316
0.44533	223844
0.44600	222386
0.44667	220943
0.44733	219514
0.44800	218100
0.44867	216699
0.44933	215312
0.45000	213939
0.45067	212579
0.45133	211232
0.45200	209899
0.45267	208578
0.45333	207270
0.45400	205975
0.45467	204692
0.45533	203422
0.45600	202164
0.45667	200917
0.45733	199683
0.45800	198461
0.45867	197250
0.45933	196050
0.46000	194863
0.46067	193686
0.46133	192521
0.46200	191366
0.46267	190223
0.46333	189090
0.46400	187969
0.46467	186858
0.46533	185757
0.46600	184667
0.46667	183588
0.46733	182518
0.46800	181459
0.46867	180410
0.46933	179371
0.47000	178342
0.47067	177323
0.47133	176314
0.47200	175314
0.47267	174323
0.47333	173342
0.47400	172370
0.47467	171407
0.47533	170453
0.47600	169507
0.47667	168570
0.47733	167640
0.47800	166719
0.47867	165807
0.47933	164902
0.48000	164004
0.48067	163115
0.48133	162233
0.48200	161358
0.48267	160491
0.48333	159631
0.48400	158778
0.48467	157932
0.48533	157094
0.48600	156262
0.48667	155438
0.48733	154620
0.48800	153809
0.48867	153004
0.48933	152207
0.49000	151416
0.49067	150631
0.49133	149853
0.49200	149081
0.49267	148316
0.49333	147557
0.49400	146804
0.49467	146058
0.49533	145318
0.49600	144584
0.49667	143856
0.49733	143134
0.49800	142418
0.49867	141708
0.49933	141004
0.50000	140306
0.50067	139613
0.50133	138926
0.50200	138245
0.50267	137569
0.50333	136899
0.50400	136235
0.50467	135576
0.50533	134922
0.50600	134273
0.50667	133630
0.50733	132993
0.50800	132360
0.50867	131732
0.50933	131109
0.51000	130492
0.51067	129879
0.51133	129270
0.51200	128667
0.51267	128069
0.51333	127475
0.51400	126886
0.51467	126301
0.51533	125721
0.51600	125145
0.51667	124574
0.51733	124008
0.51800	123445
0.51867	122887
0.51933	122333
0.52000	121783
0.52067	121238
0.52133	120697
0.52200	120159
0.52267	119626
0.52333	119096
0.52400	118570
0.52467	118049
0.52533	117531
0.52600	117017
0.52667	116507
0.52733	116000
0.52800	115498
0.52867	114999
0.52933	114503
0.53000	114011
0.53067	113523
0.53133	113038
0.53200	112557
0.53267	112079
0.53333	111605
0.53400	111134
0.53467	110666
0.53533	110202
0.53600	109741
0.53667	109283
0.53733	108829
0.53800	108378
0.53867	107930
0.53933	107486
0.54000	107044
0.54067	106606
0.54133	106171
0.54200	105739
0.54267	105309
0.54333	104883
0.54400	104460
0.54467	104040
0.54533	103622
0.54600	103208
0.54667	102796
0.54733	102387
0.54800	101981
0.54867	101578
0.54933	101177
0.55000	100779
0.55067	100384
0.55133	99992
0.55200	99602
0.55267	99215
0.55333	98830
0.55400	98449
0.55467	98069
0.55533	97693
0.55600	97319
0.55667	96948
0.55733	96579
0.55800	96212
0.55867	95849
0.55933	95487
0.56000	95128
0.56067	94772
0.56133	94418
0.56200	94066
0.56267	93717
0.56333	93369
0.56400	93025
0.56467	92682
0.56533	92342
0.56600	92004
0.56667	91668
0.56733	91335
0.56800	91003
0.56867	90674
0.56933	90347
0.57000	90022
0.57067	89699
0.57133	89378
0.57200	89059
0.57267	88742
0.57333	88428
0.57400	88115
0.57467	87804
0.57533	87496
0.57600	87189
0.57667	86885
0.57733	86582
0.57800	86281
0.57867	85982
0.57933	85686
0.58000	85390
0.58067	85097
0.58133	84806
0.58200	84517
0.58267	84229
0.58333	83943
0.58400	83659
0.58467	83377
0.58533	83097
0.58600	82819
0.58667	82542
0.58733	82267
0.58800	81995
0.58867	81724
0.58933	81455
0.59000	81188
0.59067	80924
0.59133	80661
0.59200	80400
0.59267	80142
0.59333	79885
0.59400	79630
0.59467	79376
0.59533	79124
0.59600	78874
0.59667	78626
0.59733	78379
0.59800	78134
0.59867	77889
0.59933	77646
0.60000	77405
0.60067	77165
0.60133	76925
0.60200	76688
0.60267	76451
0.60333	76215
0.60400	75981
0.60467	75748
0.60533	75515
0.60600	75284
0.60667	75054
0.60733	74825
0.60800	74597
0.60867	74371
0.60933	74145
0.61000	73921
0.61067	73697
0.61133	73475
0.61200	73253
0.61267	73033
0.61333	72814
0.61400	72595
0.61467	72378
0.61533	72162
0.61600	71947
0.61667	71733
0.61733	71521
0.61800	71309
0.61867	71099
0.61933	70890
0.62000	70682
0.62067	70475
0.62133	70269
0.62200	70065
0.62267	69862
0.62333	69659
0.62400	69459
0.62467	69259
0.62533	69061
0.62600	68863
0.62667	68667
0.62733	68472
0.62800	68278
0.62867	68086
0.62933	67894
0.63000	67703
0.63067	67513
0.63133	67325
0.63200	67137
0.63267	66950
0.63333	66764
0.63400	66579
0.63467	66395
0.63533	66212
0.63600	66030
0.63667	65849
0.63733	65668
0.63800	65489
0.63867	65310
0.63933	65132
0.64000	64954
0.64067	64778
0.64133	64602
0.64200	64427
0.64267	64253
0.64333	64080
0.64400	63907
0.64467	63735
0.64533	63564
0.64600	63394
0.64667	63224
0.64733	63055
0.64800	62887
0.64867	62720
0.64933	62553
0.65000	62387
0.65067	62222
0.65133	62057
0.65200	61893
0.65267	61730
0.65333	61568
0.65400	61406
0.65467	61245
0.65533	61085
0.65600	60926
0.65667	60767
0.65733	60610
0.65800	60452
0.65867	60296
0.65933	60140
0.66000	59986
0.66067	59832
0.66133	59678
0.66200	59526
0.66267	59374
0.66333	59223
0.66400	59073
0.66467	58923
0.66533	58774
0.66600	58626
0.66667	58479
0.66733	58332
0.66800	58186
0.66867	58041
0.66933	57896
0.67000	57752
0.67067	57609
0.67133	57466
0.67200	57324
0.67267	57183
0.67333	57042
0.67400	56902
0.67467	56763
0.67533	56625
0.67600	56487
0.67667	56350
0.67733	56213
0.67800	56077
0.67867	55942
0.67933	55808
0.68000	55674
0.68067	55541
0.68133	55408
0.68200	55276
0.68267	55144
0.68333	55014
0.68400	54884
0.68467	54754
0.68533	54625
0.68600	54497
0.68667	54369
0.68733	54242
0.68800	54116
0.68867	53990
0.68933	53865
0.69000	53740
0.69067	53616
0.69133	53492
0.69200	53369
0.69267	53247
0.69333	53125
0.69400	53003
0.69467	52882
0.69533	52762
0.69600	52642
0.69667	52523
0.69733	52404
0.69800	52286
0.69867	52168
0.69933	52051
0.70000	51935
0.70067	51819
0.70133	51704
0.70200	51590
0.70267	51477
0.70333	51364
0.70400	51252
0.70467	51141
0.70533	51031
0.70600	50922
0.70667	50814
0.70733	50707
0.70800	50600
0.70867	50494
0.70933	50390
0.71000	50286
0.71067	50183
0.71133	50081
0.71200	49980
0.71267	49880
0.71333	49781
0.71400	49683
0.71467	49586
0.71533	49490
0.71600	49397
0.71667	49304
0.71733	49214
0.71800	49125
0.71867	49039
0.71933	48956
0.72000	48874
0.72067	48796
0.72133	48720
0.72200	48648
0.72267	48578
0.72333	48511
0.72400	48448
0.72467	48387
0.72533	48329
0.72600	48273
0.72667	48219
0.72733	48167
0.72800	48116
0.72867	48067
0.72933	48018
0.73000	47969
0.73067	47921
0.73133	47872
0.73200	47822
0.73267	47771
0.73333	47720
0.73400	47667
0.73467	47612
0.73533	47556
0.73600	47497
0.73667	47437
0.73733	47376
0.73800	47312
0.73867	47247
0.73933	47180
0.74000	47111
0.74067	47041
0.74133	46969
0.74200	46896
0.74267	46822
0.74333	46746
0.74400	46669
0.74467	46591
0.74533	46512
0.74600	46432
0.74667	46352
0.74733	46270
0.74800	46187
0.74867	46104
0.74933	46020
0.75000	45935
0.75067	45849
0.75133	45763
0.75200	45677
0.75267	45589
0.75333	45501
0.75400	45413
0.75467	45324
0.75533	45234
0.75600	45144
0.75667	45054
0.75733	44963
0.75800	44872
0.75867	44780
0.75933	44688
0.76000	44596
0.76067	44503
0.76133	44411
0.76200	44318
0.76267	44225
0.76333	44131
0.76400	44038
0.76467	43945
0.76533	43851
0.76600	43758
0.76667	43664
0.76733	43571
0.76800	43478
0.76867	43384
0.76933	43291
0.77000	43199
0.77067	43106
0.77133	43013
0.77200	42920
0.77267	42828
0.77333	42736
0.77400	42644
0.77467	42553
0.77533	42462
0.77600	42371
0.77667	42280
0.77733	42190
0.77800	42100
0.77867	42011
0.77933	41922
0.78000	41834
0.78067	41746
0.78133	41658
0.78200	41571
0.78267	41484
0.78333	41398
0.78400	41312
0.78467	41227
0.78533	41142
0.78600	41058
0.78667	40974
0.78733	40891
0.78800	40808
0.78867	40725
0.78933	40643
0.79000	40562
0.79067	40481
0.79133	40401
0.79200	40321
0.79267	40242
0.79333	40163
0.79400	40085
0.79467	40007
0.79533	39930
0.79600	39853
0.79667	39777
0.79733	39701
0.79800	39625
0.79867	39551
0.79933	39476
0.80000	39402
0.80067	39329
0.80133	39256
0.80200	39184
0.80267	39111
0.80333	39040
0.80400	38968
0.80467	38898
0.80533	38827
0.80600	38757
0.80667	38688
0.80733	38619
0.80800	38550
0.80867	38482
0.80933	38414
0.81000	38347
0.81067	38280
0.81133	38214
0.81200	38148
0.81267	38083
0.81333	38017
0.81400	37953
0.81467	37888
0.81533	37824
0.81600	37761
0.81667	37697
0.81733	37635
0.81800	37572
0.81867	37510
0.81933	37448
0.82000	37387
0.82067	37325
0.82133	37265
0.82200	37204
0.82267	37144
0.82333	37084
0.82400	37024
0.82467	36965
0.82533	36906
0.82600	36847
0.82667	36789
0.82733	36730
0.82800	36672
0.82867	36615
0.82933	36557
0.83000	36500
0.83067	36443
0.83133	36386
0.83200	36330
0.83267	36273
0.83333	36217
0.83400	36161
0.83467	36106
0.83533	36050
0.83600	35995
0.83667	35940
0.83733	35885
0.83800	35831
0.83867	35776
0.83933	35722
0.84000	35668
0.84067	35614
0.84133	35560
0.84200	35507
0.84267	35454
0.84333	35401
0.84400	35348
0.84467	35295
0.84533	35243
0.84600	35191
0.84667	35139
0.84733	35087
0.84800	35036
0.84867	34985
0.84933	34935
0.85000	34884
0.85067	34834
0.85133	34784
0.85200	34734
0.85267	34685
0.85333	34636
0.85400	34587
0.85467	34538
0.85533	34490
0.85600	34442
0.85667	34394
0.85733	34346
0.85800	34299
0.85867	34252
0.85933	34204
0.86000	34157
0.86067	34111
0.86133	34064
0.86200	34018
0.86267	33972
0.86333	33925
0.86400	33880
0.86467	33834
0.86533	33788
0.86600	33743
0.86667	33698
0.86733	33652
0.86800	33607
0.86867	33563
0.86933	33518
0.87000	33473
0.87067	33429
0.87133	33384
0.87200	33340
0.87267	33296
0.87333	33252
0.87400	33208
0.87467	33164
0.87533	33120
0.87600	33077
0.87667	33033
0.87733	32990
0.87800	32947
0.87867	32903
0.87933	32860
0.88000	32817
0.88067	32775
0.88133	32732
0.88200	32689
0.88267	32647
0.88333	32605
0.88400	32562
0.88467	32520
0.88533	32478
0.88600	32436
0.88667	32394
0.88733	32352
0.88800	32311
0.88867	32269
0.88933	32227
0.89000	32186
0.89067	32144
0.89133	32103
0.89200	32061
0.89267	32020
0.89333	31979
0.89400	31938
0.89467	31897
0.89533	31856
0.89600	31815
0.89667	31774
0.89733	31733
0.89800	31692
0.89867	31652
0.89933	31611
0.90000	31571
0.90067	31530
0.90133	31490
0.90200	31450
0.90267	31409
0.90333	31369
0.90400	31330
0.90467	31290
0.90533	31250
0.90600	31210
0.90667	31171
0.90733	31131
0.90800	31092
0.90867	31052
0.90933	31013
0.91000	30974
0.91067	30935
0.91133	30896
0.91200	30857
0.91267	30818
0.91333	30780
0.91400	30741
0.91467	30703
0.91533	30664
0.91600	30626
0.91667	30588
0.91733	30550
0.91800	30512
0.91867	30474
0.91933	30436
0.92000	30398
0.92067	30360
0.92133	30322
0.92200	30285
0.92267	30247
0.92333	30210
0.92400	30172
0.92467	30135
0.92533	30098
0.92600	30060
0.92667	30023
0.92733	29986
0.92800	29949
0.92867	29912
0.92933	29876
0.93000	29839
0.93067	29802
0.93133	29766
0.93200	29729
0.93267	29693
0.93333	29657
0.93400	29620
0.93467	29584
0.93533	29548
0.93600	29513
0.93667	29477
0.93733	29441
0.93800	29405
0.93867	29370
0.93933	29335
0.94000	29299
0.94067	29264
0.94133	29229
0.94200	29195
0.94267	29160
0.94333	29126
0.94400	29092
0.94467	29058
0.94533	29024
0.94600	28990
0.94667	28957
0.94733	28924
0.94800	28891
0.94867	28858
0.94933	28825
0.95000	28792
0.95067	28760
0.95133	28728
0.95200	28696
0.95267	28664
0.95333	28632
0.95400	28600
0.95467	28568
0.95533	28537
0.95600	28506
0.95667	28474
0.95733	28443
0.95800	28412
0.95867	28381
0.95933	28351
0.96000	28320
0.96067	28289
0.96133	28258
0.96200	28228
0.96267	28197
0.96333	28166
0.96400	28136
0.96467	28105
0.96533	28075
0.96600	28044
0.96667	28014
0.96733	27983
0.96800	27953
0.96867	27922
0.96933	27891
0.97000	27861
0.97067	27830
0.97133	27800
0.97200	27769
0.97267	27739
0.97333	27708
0.97400	27678
0.97467	27647
0.97533	27617
0.97600	27586
0.97667	27556
0.97733	27525
0.97800	27495
0.97867	27465
0.97933	27435
0.98000	27404
0.98067	27374
0.98133	27344
0.98200	27313
0.98267	27283
0.98333	27253
0.98400	27223
0.98467	27193
0.98533	27163
0.98600	27133
0.98667	27103
0.98733	27073
0.98800	27043
0.98867	27013
0.98933	26983
0.99000	26953
0.99067	26924
0.99133	26894
0.99200	26864
0.99267	26834
0.99333	26805
0.99400	26775
0.99467	26745
0.99533	26716
0.99600	26686
0.99667	26657
0.99733	26627
0.99800	26598
0.99867	26569
0.99933	26540
1.00000	26510
1.00067	26481
1.00133	26452
1.00200	26423
1.00267	26394
1.00333	26366
1.00400	26337
1.00467	26308
1.00533	26279
1.00600	26251
1.00667	26222
1.00733	26193
1.00800	26165
1.00867	26136
1.00933	26108
1.01000	26079
1.01067	26051
1.01133	26023
1.01200	25995
1.01267	25967
1.01333	25939
1.01400	25911
1.01467	25883
1.01533	25855
1.01600	25828
1.01667	25800
1.01733	25773
1.01800	25746
1.01867	25718
1.01933	25691
1.02000	25664
1.02067	25637
1.02133	25610
1.02200	25583
1.02267	25556
1.02333	25530
1.02400	25503
1.02467	25477
1.02533	25450
1.02600	25424
1.02667	25398
1.02733	25371
1.02800	25345
1.02867	25319
1.02933	25294
1.03000	25268
1.03067	25242
1.03133	25217
1.03200	25191
1.03267	25166
1.03333	25141
1.03400	25116
1.03467	25091
1.03533	25066
1.03600	25041
1.03667	25017
1.03733	24992
1.03800	24968
1.03867	24943
1.03933	24919
1.04000	24895
1.04067	24871
1.04133	24847
1.04200	24823
1.04267	24799
1.04333	24775
1.04400	24751
1.04467	24728
1.04533	24704
1.04600	24680
1.04667	24657
1.04733	24634
1.04800	24610
1.04867	24587
1.04933	24564
1.05000	24540
1.05067	24517
1.05133	24494
1.05200	24471
1.05267	24448
1.05333	24425
1.05400	24402
1.05467	24378
1.05533	24355
1.05600	24332
1.05667	24309
1.05733	24286
1.05800	24264
1.05867	24241
1.05933	24218
1.06000	24196
1.06067	24173
1.06133	24151
1.06200	24128
1.06267	24106
1.06333	24083
1.06400	24061
1.06467	24038
1.06533	24016
1.06600	23993
1.06667	23971
1.06733	23949
1.06800	23927
1.06867	23905
1.06933	23883
1.07000	23861
1.07067	23839
1.07133	23817
1.07200	23795
1.07267	23773
1.07333	23751
1.07400	23730
1.07467	23708
1.07533	23687
1.07600	23665
1.07667	23644
1.07733	23623
1.07800	23602
1.07867	23580
1.07933	23559
1.08000	23538
1.08067	23517
1.08133	23497
1.08200	23476
1.08267	23455
1.08333	23434
1.08400	23414
1.08467	23393
1.08533	23372
1.08600	23352
1.08667	23331
1.08733	23311
1.08800	23291
1.08867	23270
1.08933	23250
1.09000	23230
1.09067	23210
1.09133	23189
1.09200	23169
1.09267	23149
1.09333	23129
1.09400	23109
1.09467	23089
1.09533	23069
1.09600	23049
1.09667	23029
1.09733	23009
1.09800	22989
1.09867	22969
1.09933	22949
1.10000	22929
1.10067	22909
1.10133	22889
1.10200	22870
1.10267	22850
1.10333	22830
1.10400	22810
1.10467	22790
1.10533	22770
1.10600	22751
1.10667	22731
1.10733	22711
1.10800	22691
1.10867	22672
1.10933	22652
1.11000	22632
1.11067	22613
1.11133	22593
1.11200	22574
1.11267	22554
1.11333	22535
1.11400	22515
1.11467	22496
1.11533	22477
1.11600	22458
1.11667	22438
1.11733	22419
1.11800	22400
1.11867	22381
1.11933	22362
1.12000	22343
1.12067	22324
1.12133	22305
1.12200	22286
1.12267	22267
1.12333	22248
1.12400	22229
1.12467	22211
1.12533	22192
1.12600	22173
1.12667	22155
1.12733	22136
1.12800	22118
1.12867	22100
1.12933	22081
1.13000	22063
1.13067	22045
1.13133	22027
1.13200	22009
1.13267	21991
1.13333	21972
1.13400	21955
1.13467	21937
1.13533	21919
1.13600	21901
1.13667	21883
1.13733	21865
1.13800	21847
1.13867	21829
1.13933	21812
1.14000	21794
1.14067	21776
1.14133	21759
1.14200	21741
1.14267	21724
1.14333	21706
1.14400	21689
1.14467	21671
1.14533	21654
1.14600	21636
1.14667	21619
1.14733	21601
1.14800	21584
1.14867	21566
1.14933	21549
1.15000	21532
1.15067	21514
1.15133	21497
1.15200	21480
1.15267	21463
1.15333	21446
1.15400	21428
1.15467	21411
1.15533	21394
1.15600	21377
1.15667	21360
1.15733	21343
1.15800	21327
1.15867	21310
1.15933	21293
1.16000	21276
1.16067	21259
1.16133	21242
1.16200	21226
1.16267	21209
1.16333	21192
1.16400	21176
1.16467	21159
1.16533	21143
1.16600	21127
1.16667	21110
1.16733	21094
1.16800	21078
1.16867	21062
1.16933	21046
1.17000	21030
1.17067	21014
1.17133	20998
1.17200	20982
1.17267	20966
1.17333	20950
1.17400	20934
1.17467	20918
1.17533	20902
1.17600	20886
1.17667	20870
1.17733	20855
1.17800	20839
1.17867	20823
1.17933	20808
1.18000	20792
1.18067	20777
1.18133	20761
1.18200	20746
1.18267	20730
1.18333	20715
1.18400	20700
1.18467	20684
1.18533	20669
1.18600	20654
1.18667	20639
1.18733	20624
1.18800	20609
1.18867	20594
1.18933	20579
1.19000	20564
1.19067	20549
1.19133	20535
1.19200	20520
1.19267	20505
1.19333	20491
1.19400	20476
1.19467	20462
1.19533	20448
1.19600	20433
1.19667	20419
1.19733	20405
1.19800	20391
1.19867	20377
1.19933	20363
1.20000	20349
1.20067	20336
1.20133	20322
1.20200	20309
1.20267	20295
1.20333	20282
1.20400	20268
1.20467	20255
1.20533	20242
1.20600	20228
1.20667	20215
1.20733	20202
1.20800	20189
1.20867	20175
1.20933	20162
1.21000	20149
1.21067	20136
1.21133	20123
1.21200	20110
1.21267	20097
1.21333	20084
1.21400	20071
1.21467	20058
1.21533	20045
1.21600	20032
1.21667	20020
1.21733	20007
1.21800	19994
1.21867	19981
1.21933	19968
1.22000	19955
1.22067	19943
1.22133	19930
1.22200	19917
1.22267	19904
1.22333	19892
1.22400	19879
1.22467	19866
1.22533	19854
1.22600	19841
1.22667	19828
1.22733	19816
1.22800	19803
1.22867	19791
1.22933	19778
1.23000	19766
1.23067	19753
1.23133	19741
1.23200	19728
1.23267	19716
1.23333	19704
1.23400	19691
1.23467	19679
1.23533	19667
1.23600	19654
1.23667	19642
1.23733	19630
1.23800	19618
1.23867	19606
1.23933	19594
1.24000	19582
1.24067	19570
1.24133	19558
1.24200	19547
1.24267	19535
1.24333	19523
1.24400	19512
1.24467	19500
1.24533	19489
1.24600	19477
1.24667	19466
1.24733	19455
1.24800	19444
1.24867	19432
1.24933	19421
1.25000	19410
1.25067	19399
1.25133	19388
1.25200	19377
1.25267	19366
1.25333	19356
1.25400	19345
1.25467	19334
1.25533	19323
1.25600	19313
1.25667	19302
1.25733	19291
1.25800	19281
1.25867	19271
1.25933	19260
1.26000	19250
1.26067	19240
1.26133	19229
1.26200	19219
1.26267	19209
1.26333	19199
1.26400	19189
1.26467	19179
1.26533	19168
1.26600	19158
1.26667	19148
1.26733	19138
1.26800	19128
1.26867	19118
1.26933	19108
1.27000	19098
1.27067	19088
1.27133	19078
1.27200	19069
1.27267	19059
1.27333	19049
1.27400	19039
1.27467	19029
1.27533	19019
1.27600	19010
1.27667	19000
1.27733	18990
1.27800	18981
1.27867	18971
1.27933	18961
1.28000	18952
1.28067	18942
1.28133	18933
1.28200	18923
1.28267	18914
1.28333	18904
1.28400	18894
1.28467	18885
1.28533	18875
1.28600	18865
1.28667	18856
1.28733	18846
1.28800	18836
1.28867	18826
1.28933	18817
1.29000	18807
1.29067	18797
1.29133	18787
1.29200	18778
1.29267	18768
1.29333	18758
1.29400	18748
1.29467	18738
1.29533	18729
1.29600	18719
1.29667	18709
1.29733	18699
1.29800	18689
1.29867	18679
1.29933	18669
1.30000	18659
1.30067	18649
1.30133	18639
1.30200	18629
1.30267	18619
1.30333	18610
1.30400	18600
1.30467	18590
1.30533	18580
1.30600	18570
1.30667	18559
1.30733	18549
1.30800	18539
1.30867	18529
1.30933	18518
1.31000	18508
1.31067	18498
1.31133	18487
1.31200	18477
1.31267	18466
1.31333	18456
1.31400	18445
1.31467	18435
1.31533	18424
1.31600	18413
1.31667	18403
1.31733	18392
1.31800	18382
1.31867	18371
1.31933	18360
1.32000	18349
1.32067	18339
1.32133	18328
1.32200	18317
1.32267	18307
1.32333	18296
1.32400	18285
1.32467	18274
1.32533	18263
1.32600	18253
1.32667	18242
1.32733	18231
1.32800	18220
1.32867	18209
1.32933	18198
1.33000	18187
1.33067	18176
1.33133	18165
1.33200	18154
1.33267	18143
1.33333	18132
1.33400	18122
1.33467	18111
1.33533	18100
1.33600	18089
1.33667	18078
1.33733	18066
1.33800	18055
1.33867	18044
1.33933	18033
1.34000	18022
1.34067	18011
1.34133	18000
1.34200	17989
1.34267	17978
1.34333	17967
1.34400	17956
1.34467	17945
1.34533	17934
1.34600	17923
1.34667	17912
1.34733	17901
1.34800	17889
1.34867	17878
1.34933	17867
1.35000	17856
1.35067	17845
1.35133	17834
1.35200	17823
1.35267	17812
1.35333	17801
1.35400	17790
1.35467	17779
1.35533	17768
1.35600	17757
1.35667	17746
1.35733	17735
1.35800	17724
1.35867	17713
1.35933	17702
1.36000	17691
1.36067	17681
1.36133	17670
1.36200	17659
1.36267	17648
1.36333	17637
1.36400	17627
1.36467	17616
1.36533	17605
1.36600	17595
1.36667	17584
1.36733	17573
1.36800	17563
1.36867	17552
1.36933	17541
1.37000	17531
1.37067	17520
1.37133	17510
1.37200	17499
1.37267	17489
1.37333	17478
1.37400	17468
1.37467	17458
1.37533	17447
1.37600	17437
1.37667	17427
1.37733	17416
1.37800	17406
1.37867	17396
1.37933	17386
1.38000	17376
1.38067	17366
1.38133	17356
1.38200	17346
1.38267	17336
1.38333	17326
1.38400	17316
1.38467	17306
1.38533	17296
1.38600	17286
1.38667	17276
1.38733	17267
1.38800	17257
1.38867	17247
1.38933	17237
1.39000	17228
1.39067	17218
1.39133	17209
1.39200	17199
1.39267	17189
1.39333	17180
1.39400	17170
1.39467	17161
1.39533	17151
1.39600	17142
1.39667	17132
1.39733	17123
1.39800	17113
1.39867	17104
1.39933	17095
1.40000	17085
1.40067	17076
1.40133	17066
1.40200	17057
1.40267	17048
1.40333	17038
1.40400	17029
1.40467	17020
1.40533	17011
1.40600	17002
1.40667	16992
1.40733	16983
1.40800	16974
1.40867	16965
1.40933	16956
1.41000	16946
1.41067	16937
1.41133	16928
1.41200	16919
1.41267	16909
1.41333	16900
1.41400	16891
1.41467	16882
1.41533	16873
1.41600	16863
1.41667	16854
1.41733	16845
1.41800	16836
1.41867	16827
1.41933	16818
1.42000	16809
1.42067	16800
1.42133	16791
1.42200	16782
1.42267	16773
1.42333	16764
1.42400	16756
1.42467	16747
1.42533	16738
1.42600	16730
1.42667	16721
1.42733	16713
1.42800	16704
1.42867	16696
1.42933	16687
1.43000	16679
1.43067	16671
1.43133	16662
1.43200	16654
1.43267	16646
1.43333	16638
1.43400	16630
1.43467	16622
1.43533	16614
1.43600	16606
1.43667	16598
1.43733	16590
1.43800	16582
1.43867	16575
1.43933	16567
1.44000	16559
1.44067	16552
1.44133	16544
1.44200	16537
1.44267	16529
1.44333	16522
1.44400	16514
1.44467	16507
1.44533	16499
1.44600	16492
1.44667	16485
1.44733	16477
1.44800	16470
1.44867	16462
1.44933	16455
1.45000	16447
1.45067	16439
1.45133	16432
1.45200	16424
1.45267	16417
1.45333	16409
1.45400	16401
1.45467	16393
1.45533	16385
1.45600	16378
1.45667	16370
1.45733	16362
1.45800	16354
1.45867	16346
1.45933	16337
1.46000	16329
1.46067	16321
1.46133	16313
1.46200	16305
1.46267	16297
1.46333	16288
1.46400	16280
1.46467	16271
1.46533	16263
1.46600	16255
1.46667	16246
1.46733	16238
1.46800	16229
1.46867	16221
1.46933	16212
1.47000	16203
1.47067	16195
1.47133	16186
1.47200	16178
1.47267	16169
1.47333	16160
1.47400	16152
1.47467	16143
1.47533	16134
1.47600	16126
1.47667	16117
1.47733	16109
1.47800	16100
1.47867	16092
1.47933	16083
1.48000	16075
1.48067	16067
1.48133	16058
1.48200	16050
1.48267	16042
1.48333	16034
1.48400	16025
1.48467	16017
1.48533	16009
1.48600	16001
1.48667	15993
1.48733	15985
1.48800	15977
1.48867	15969
1.48933	15961
1.49000	15953
1.49067	15945
1.49133	15937
1.49200	15929
1.49267	15921
1.49333	15913
1.49400	15905
1.49467	15898
1.49533	15890
1.49600	15882
1.49667	15874
1.49733	15867
1.49800	15859
1.49867	15851
1.49933	15843
1.50000	15835
1.50067	15828
1.50133	15820
1.50200	15812
1.50267	15804
1.50333	15796
1.50400	15789
1.50467	15781
1.50533	15773
1.50600	15765
1.50667	15757
1.50733	15750
1.50800	15742
1.50867	15734
1.50933	15726
1.51000	15718
1.51067	15711
1.51133	15703
1.51200	15695
1.51267	15688
1.51333	15680
1.51400	15672
1.51467	15665
1.51533	15657
1.51600	15650
1.51667	15642
1.51733	15635
1.51800	15627
1.51867	15620
1.51933	15612
1.52000	15605
1.52067	15598
1.52133	15590
1.52200	15583
1.52267	15575
1.52333	15568
1.52400	15561
1.52467	15553
1.52533	15546
1.52600	15539
1.52667	15531
1.52733	15524
1.52800	15517
1.52867	15509
1.52933	15502
1.53000	15494
1.53067	15487
1.53133	15480
1.53200	15472
1.53267	15465
1.53333	15458
1.53400	15450
1.53467	15443
1.53533	15436
1.53600	15428
1.53667	15421
1.53733	15414
1.53800	15407
1.53867	15400
1.53933	15393
1.54000	15385
1.54067	15378
1.54133	15371
1.54200	15364
1.54267	15357
1.54333	15350
1.54400	15343
1.54467	15336
1.54533	15329
1.54600	15322
1.54667	15315
1.54733	15308
1.54800	15301
1.54867	15294
1.54933	15287
1.55000	15280
1.55067	15273
1.55133	15267
1.55200	15260
1.55267	15253
1.55333	15246
1.55400	15239
1.55467	15232
1.55533	15226
1.55600	15219
1.55667	15212
1.55733	15205
1.55800	15198
1.55867	15191
1.55933	15184
1.56000	15177
1.56067	15171
1.56133	15164
1.56200	15157
1.56267	15151
1.56333	15144
1.56400	15137
1.56467	15131
1.56533	15124
1.56600	15118
1.56667	15111
1.56733	15104
1.56800	15098
1.56867	15091
1.56933	15085
1.57000	15078
1.57067	15072
1.57133	15065
1.57200	15059
1.57267	15053
1.57333	15046
1.57400	15040
1.57467	15034
1.57533	15027
1.57600	15021
1.57667	15015
1.57733	15008
1.57800	15002
1.57867	14996
1.57933	14989
1.58000	14983
1.58067	14977
1.58133	14971
1.58200	14964
1.58267	14958
1.58333	14952
1.58400	14946
1.58467	14939
1.58533	14933
1.58600	14927
1.58667	14920
1.58733	14914
1.58800	14908
1.58867	14902
1.58933	14896
1.59000	14890
1.59067	14883
1.59133	14877
1.59200	14871
1.59267	14865
1.59333	14859
1.59400	14853
1.59467	14847
1.59533	14840
1.59600	14834
1.59667	14828
1.59733	14822
1.59800	14816
1.59867	14810
1.59933	14804
1.60000	14798
1.60067	14791
1.60133	14785
1.60200	14779
1.60267	14773
1.60333	14767
1.60400	14762
1.60467	14756
1.60533	14750
1.60600	14744
1.60667	14738
1.60733	14732
1.60800	14726
1.60867	14721
1.60933	14715
1.61000	14709
1.61067	14703
1.61133	14697
1.61200	14691
1.61267	14686
1.61333	14680
1.61400	14674
1.61467	14668
1.61533	14662
1.61600	14657
1.61667	14651
1.61733	14645
1.61800	14639
1.61867	14633
1.61933	14627
1.62000	14622
1.62067	14616
1.62133	14610
1.62200	14604
1.62267	14598
1.62333	14593
1.62400	14587
1.62467	14581
1.62533	14575
1.62600	14570
1.62667	14564
1.62733	14559
1.62800	14553
1.62867	14547
1.62933	14542
1.63000	14536
1.63067	14531
1.63133	14525
1.63200	14520
1.63267	14514
1.63333	14509
1.63400	14504
1.63467	14499
1.63533	14493
1.63600	14488
1.63667	14483
1.63733	14478
1.63800	14473
1.63867	14468
1.63933	14464
1.64000	14459
1.64067	14454
1.64133	14449
1.64200	14445
1.64267	14440
1.64333	14436
1.64400	14432
1.64467	14427
1.64533	14423
1.64600	14419
1.64667	14415
1.64733	14411
1.64800	14408
1.64867	14404
1.64933	14400
1.65000	14397
1.65067	14393
1.65133	14390
1.65200	14387
1.65267	14384
1.65333	14381
1.65400	14378
1.65467	14375
1.65533	14372
1.65600	14370
1.65667	14367
1.65733	14365
1.65800	14362
1.65867	14360
1.65933	14358
1.66000	14356
1.66067	14354
1.66133	14352
1.66200	14350
1.66267	14348
1.66333	14346
1.66400	14344
1.66467	14342
1.66533	14340
1.66600	14338
1.66667	14336
1.66733	14335
1.66800	14333
1.66867	14331
1.66933	14329
1.67000	14327
1.67067	14324
1.67133	14322
1.67200	14320
1.67267	14317
1.67333	14314
1.67400	14312
1.67467	14309
1.67533	14306
1.67600	14303
1.67667	14299
1.67733	14296
1.67800	14292
1.67867	14288
1.67933	14285
1.68000	14281
1.68067	14277
1.68133	14272
1.68200	14268
1.68267	14264
1.68333	14259
1.68400	14255
1.68467	14250
1.68533	14245
1.68600	14240
1.68667	14235
1.68733	14230
1.68800	14225
1.68867	14220
1.68933	14215
1.69000	14210
1.69067	14204
1.69133	14199
1.69200	14193
1.69267	14187
1.69333	14182
1.69400	14176
1.69467	14170
1.69533	14164
1.69600	14159
1.69667	14153
1.69733	14147
1.69800	14141
1.69867	14135
1.69933	14129
1.70000	14122
1.70067	14116
1.70133	14110
1.70200	14104
1.70267	14097
1.70333	14091
1.70400	14085
1.70467	14078
1.70533	14072
1.70600	14065
1.70667	14059
1.70733	14052
1.70800	14045
1.70867	14039
1.70933	14032
1.71000	14025
1.71067	14019
1.71133	14012
1.71200	14006
1.71267	13999
1.71333	13993
1.71400	13986
1.71467	13980
1.71533	13973
1.71600	13967
1.71667	13960
1.71733	13954
1.71800	13947
1.71867	13941
1.71933	13934
1.72000	13928
1.72067	13921
1.72133	13914
1.72200	13908
1.72267	13901
1.72333	13895
1.72400	13888
1.72467	13882
1.72533	13875
1.72600	13869
1.72667	13862
1.72733	13856
1.72800	13849
1.72867	13843
1.72933	13836
1.73000	13830
1.73067	13824
1.73133	13818
1.73200	13811
1.73267	13805
1.73333	13799
1.73400	13793
1.73467	13787
1.73533	13782
1.73600	13776
1.73667	13770
1.73733	13765
1.73800	13759
1.73867	13754
1.73933	13749
1.74000	13744
1.74067	13740
1.74133	13736
1.74200	13732
1.74267	13728
1.74333	13724
1.74400	13721
1.74467	13719
1.74533	13716
1.74600	13714
1.74667	13713
1.74733	13712
1.74800	13711
1.74867	13711
1.74933	13711
1.75000	13712
1.75067	13714
1.75133	13716
1.75200	13718
1.75267	13722
1.75333	13725
1.75400	13729
1.75467	13734
1.75533	13740
1.75600	13746
1.75667	13752
1.75733	13759
1.75800	13766
1.75867	13774
1.75933	13782
1.76000	13790
1.76067	13799
1.76133	13807
1.76200	13816
1.76267	13825
1.76333	13834
1.76400	13842
1.76467	13851
1.76533	13859
1.76600	13867
1.76667	13875
1.76733	13882
1.76800	13889
1.76867	13895
1.76933	13900
1.77000	13905
1.77067	13909
1.77133	13913
1.77200	13916
1.77267	13918
1.77333	13919
1.77400	13919
1.77467	13919
1.77533	13918
1.77600	13916
1.77667	13913
1.77733	13910
1.77800	13906
1.77867	13901
1.77933	13895
1.78000	13888
1.78067	13881
1.78133	13873
1.78200	13864
1.78267	13855
1.78333	13845
1.78400	13834
1.78467	13823
1.78533	13811
1.78600	13799
1.78667	13786
1.78733	13773
1.78800	13759
1.78867	13745
1.78933	13731
1.79000	13716
1.79067	13702
1.79133	13687
1.79200	13671
1.79267	13656
1.79333	13640
1.79400	13624
1.79467	13609
1.79533	13593
1.79600	13576
1.79667	13560
1.79733	13544
1.79800	13528
1.79867	13512
1.79933	13496
1.80000	13479
1.80067	13463
1.80133	13447
1.80200	13430
1.80267	13414
1.80333	13398
1.80400	13382
1.80467	13366
1.80533	13350
1.80600	13334
1.80667	13318
1.80733	13302
1.80800	13286
1.80867	13271
1.80933	13255
1.81000	13240
1.81067	13224
1.81133	13209
1.81200	13194
1.81267	13179
1.81333	13164
1.81400	13149
1.81467	13135
1.81533	13120
1.81600	13106
1.81667	13091
1.81733	13077
1.81800	13063
1.81867	13049
1.81933	13035
1.82000	13022
1.82067	13008
1.82133	12995
1.82200	12981
1.82267	12968
1.82333	12955
1.82400	12942
1.82467	12929
1.82533	12916
1.82600	12904
1.82667	12891
1.82733	12879
1.82800	12866
1.82867	12854
1.82933	12842
1.83000	12830
1.83067	12818
1.83133	12806
1.83200	12794
1.83267	12783
1.83333	12771
1.83400	12759
1.83467	12748
1.83533	12736
1.83600	12725
1.83667	12714
1.83733	12703
1.83800	12691
1.83867	12680
1.83933	12669
1.84000	12659
1.84067	12648
1.84133	12637
1.84200	12627
1.84267	12616
1.84333	12606
1.84400	12596
1.84467	12585
1.84533	12576
1.84600	12566
1.84667	12556
1.84733	12546
1.84800	12536
1.84867	12527
1.84933	12517
1.85000	12508
1.85067	12498
1.85133	12489
1.85200	12480
1.85267	12470
1.85333	12461
1.85400	12452
1.85467	12443
1.85533	12434
1.85600	12425
1.85667	12416
1.85733	12407
1.85800	12398
1.85867	12390
1.85933	12381
1.86000	12372
1.86067	12364
1.86133	12355
1.86200	12347
1.86267	12339
1.86333	12331
1.86400	12322
1.86467	12314
1.86533	12306
1.86600	12298
1.86667	12291
1.86733	12283
1.86800	12275
1.86867	12268
1.86933	12260
1.87000	12252
1.87067	12245
1.87133	12237
1.87200	12230
1.87267	12223
1.87333	12216
1.87400	12209
1.87467	12202
1.87533	12194
1.87600	12187
1.87667	12180
1.87733	12174
1.87800	12167
1.87867	12160
1.87933	12153
1.88000	12146
1.88067	12139
1.88133	12132
1.88200	12126
1.88267	12119
1.88333	12112
1.88400	12106
1.88467	12099
1.88533	12092
1.88600	12085
1.88667	12079
1.88733	12072
1.88800	12065
1.88867	12059
1.88933	12052
1.89000	12045
1.89067	12039
1.89133	12032
1.89200	12025
1.89267	12018
1.89333	12012
1.89400	12005
1.89467	11998
1.89533	11992
1.89600	11985
1.89667	11978
1.89733	11972
1.89800	11965
1.89867	11959
1.89933	11952
1.90000	11946
1.90067	11939
1.90133	11933
1.90200	11927
1.90267	11920
1.90333	11914
1.90400	11908
1.90467	11901
1.90533	11895
1.90600	11889
1.90667	11883
1.90733	11877
1.90800	11871
1.90867	11865
1.90933	11860
1.91000	11854
1.91067	11848
1.91133	11843
1.91200	11837
1.91267	11832
1.91333	11826
1.91400	11821
1.91467	11816
1.91533	11811
1.91600	11805
1.91667	11800
1.91733	11795
1.91800	11790
1.91867	11785
1.91933	11780
1.92000	11775
1.92067	11770
1.92133	11766
1.92200	11761
1.92267	11756
1.92333	11751
1.92400	11747
1.92467	11742
1.92533	11738
1.92600	11733
1.92667	11728
1.92733	11724
1.92800	11719
1.92867	11715
1.92933	11710
1.93000	11706
1.93067	11701
1.93133	11696
1.93200	11692
1.93267	11687
1.93333	11682
1.93400	11678
1.93467	11673
1.93533	11668
1.93600	11664
1.93667	11659
1.93733	11654
1.93800	11650
1.93867	11645
1.93933	11640
1.94000	11635
1.94067	11631
1.94133	11626
1.94200	11621
1.94267	11616
1.94333	11612
1.94400	11607
1.94467	11602
1.94533	11597
1.94600	11592
1.94667	11587
1.94733	11582
1.94800	11578
1.94867	11573
1.94933	11568
1.95000	11563
1.95067	11558
1.95133	11553
1.95200	11548
1.95267	11543
1.95333	11538
1.95400	11533
1.95467	11528
1.95533	11523
1.95600	11518
1.95667	11514
1.95733	11509
1.95800	11504
1.95867	11499
1.95933	11494
1.96000	11489
1.96067	11484
1.96133	11479
1.96200	11474
1.96267	11469
1.96333	11464
1.96400	11459
1.96467	11454
1.96533	11449
1.96600	11444
1.96667	11439
1.96733	11434
1.96800	11430
1.96867	11425
1.96933	11420
1.97000	11415
1.97067	11410
1.97133	11405
1.97200	11400
1.97267	11396
1.97333	11391
1.97400	11386
1.97467	11381
1.97533	11377
1.97600	11372
1.97667	11367
1.97733	11363
1.97800	11358
1.97867	11353
1.97933	11349
1.98000	11344
1.98067	11340
1.98133	11335
1.98200	11331
1.98267	11326
1.98333	11322
1.98400	11317
1.98467	11313
1.98533	11309
1.98600	11304
1.98667	11300
1.98733	11296
1.98800	11291
1.98867	11287
1.98933	11283
1.99000	11279
1.99067	11274
1.99133	11270
1.99200	11266
1.99267	11262
1.99333	11257
1.99400	11253
1.99467	11249
1.99533	11245
1.99600	11240
1.99667	11236
1.99733	11232
1.99800	11228
1.99867	11223
1.99933	11219
2.00000	11215
2.00067	11210
2.00133	11206
2.00200	11202
2.00267	11198
2.00333	11193
2.00400	11189
2.00467	11185
2.00533	11180
2.00600	11176
2.00667	11172
2.00733	11167
2.00800	11163
2.00867	11159
2.00933	11154
2.01000	11150
2.01067	11146
2.01133	11142
2.01200	11137
2.01267	11133
2.01333	11129
2.01400	11124
2.01467	11120
2.01533	11115
2.01600	11111
2.01667	11107
2.01733	11102
2.01800	11098
2.01867	11094
2.01933	11089
2.02000	11085
2.02067	11080
2.02133	11076
2.02200	11072
2.02267	11067
2.02333	11063
2.02400	11058
2.02467	11054
2.02533	11049
2.02600	11045
2.02667	11040
2.02733	11036
2.02800	11032
2.02867	11027
2.02933	11023
2.03000	11018
2.03067	11014
2.03133	11010
2.03200	11005
2.03267	11001
2.03333	10997
2.03400	10992
2.03467	10988
2.03533	10984
2.03600	10979
2.03667	10975
2.03733	10971
2.03800	10966
2.03867	10962
2.03933	10958
2.04000	10954
2.04067	10949
2.04133	10945
2.04200	10941
2.04267	10937
2.04333	10932
2.04400	10928
2.04467	10924
2.04533	10920
2.04600	10915
2.04667	10911
2.04733	10907
2.04800	10903
2.04867	10898
2.04933	10894
2.05000	10890
2.05067	10885
2.05133	10881
2.05200	10877
2.05267	10872
2.05333	10868
2.05400	10864
2.05467	10860
2.05533	10855
2.05600	10851
2.05667	10847
2.05733	10842
2.05800	10838
2.05867	10834
2.05933	10830
2.06000	10825
2.06067	10821
2.06133	10817
2.06200	10812
2.06267	10808
2.06333	10804
2.06400	10799
2.06467	10795
2.06533	10791
2.06600	10787
2.06667	10782
2.06733	10778
2.06800	10774
2.06867	10770
2.06933	10765
2.07000	10761
2.07067	10757
2.07133	10753
2.07200	10748
2.07267	10744
2.07333	10740
2.07400	10736
2.07467	10732
2.07533	10728
2.07600	10724
2.07667	10720
2.07733	10716
2.07800	10711
2.07867	10707
2.07933	10703
2.08000	10699
2.08067	10695
2.08133	10691
2.08200	10687
2.08267	10683
2.08333	10679
2.08400	10675
2.08467	10671
2.08533	10667
2.08600	10663
2.08667	10659
2.08733	10655
2.08800	10651
2.08867	10647
2.08933	10643
2.09000	10639
2.09067	10635
2.09133	10632
2.09200	10628
2.09267	10624
2.09333	10620
2.09400	10616
2.09467	10612
2.09533	10608
2.09600	10605
2.09667	10601
2.09733	10597
2.09800	10593
2.09867	10589
2.09933	10585
2.10000	10582
2.10067	10578
2.10133	10574
2.10200	10570
2.10267	10566
2.10333	10563
2.10400	10559
2.10467	10555
2.10533	10551
2.10600	10548
2.10667	10544
2.10733	10540
2.10800	10536
2.10867	10533
2.10933	10529
2.11000	10525
2.11067	10522
2.11133	10518
2.11200	10514
2.11267	10511
2.11333	10507
2.11400	10504
2.11467	10500
2.11533	10496
2.11600	10493
2.11667	10489
2.11733	10486
2.11800	10482
2.11867	10479
2.11933	10475
2.12000	10472
2.12067	10468
2.12133	10465
2.12200	10462
2.12267	10458
2.12333	10455
2.12400	10451
2.12467	10448
2.12533	10445
2.12600	10441
2.12667	10438
2.12733	10434
2.12800	10431
2.12867	10427
2.12933	10424
2.13000	10420
2.13067	10417
2.13133	10414
2.13200	10410
2.13267	10407
2.13333	10403
2.13400	10400
2.13467	10396
2.13533	10393
2.13600	10389
2.13667	10386
2.13733	10383
2.13800	10379
2.13867	10376
2.13933	10372
2.14000	10369
2.14067	10365
2.14133	10362
2.14200	10358
2.14267	10355
2.14333	10351
2.14400	10348
2.14467	10344
2.14533	10341
2.14600	10338
2.14667	10334
2.14733	10331
2.14800	10328
2.14867	10324
2.14933	10321
2.15000	10318
2.15067	10314
2.15133	10311
2.15200	10308
2.15267	10305
2.15333	10301
2.15400	10298
2.15467	10295
2.15533	10292
2.15600	10288
2.15667	10285
2.15733	10282
2.15800	10279
2.15867	10275
2.15933	10272
2.16000	10269
2.16067	10266
2.16133	10263
2.16200	10259
2.16267	10256
2.16333	10253
2.16400	10250
2.16467	10246
2.16533	10243
2.16600	10240
2.16667	10237
2.16733	10234
2.16800	10231
2.16867	10227
2.16933	10224
2.17000	10221
2.17067	10218
2.17133	10215
2.17200	10212
2.17267	10208
2.17333	10205
2.17400	10202
2.17467	10199
2.17533	10196
2.17600	10193
2.17667	10189
2.17733	10186
2.17800	10183
2.17867	10180
2.17933	10177
2.18000	10174
2.18067	10171
2.18133	10168
2.18200	10165
2.18267	10162
2.18333	10159
2.18400	10156
2.18467	10153
2.18533	10150
2.18600	10147
2.18667	10144
2.18733	10141
2.18800	10138
2.18867	10135
2.18933	10132
2.19000	10129
2.19067	10126
2.19133	10123
2.19200	10120
2.19267	10117
2.19333	10114
2.19400	10111
2.19467	10108
2.19533	10105
2.19600	10102
2.19667	10099
2.19733	10096
2.19800	10093
2.19867	10090
2.19933	10087
2.20000	10084
2.20067	10081
2.20133	10079
2.20200	10076
2.20267	10073
2.20333	10070
2.20400	10068
2.20467	10065
2.20533	10062
2.20600	10059
2.20667	10057
2.20733	10054
2.20800	10051
2.20867	10048
2.20933	10046
2.21000	10043
2.21067	10040
2.21133	10037
2.21200	10035
2.21267	10032
2.21333	10029
2.21400	10026
2.21467	10023
2.21533	10020
2.21600	10018
2.21667	10015
2.21733	10012
2.21800	10009
2.21867	10006
2.21933	10003
2.22000	10001
2.22067	9998
2.22133	9995
2.22200	9992
2.22267	9989
2.22333	9987
2.22400	9984
2.22467	9981
2.22533	9978
2.22600	9975
2.22667	9972
2.22733	9970
2.22800	9967
2.22867	9964
2.22933	9961
2.23000	9958
2.23067	9955
2.23133	9952
2.23200	9949
2.23267	9946
2.23333	9943
2.23400	9940
2.23467	9937
2.23533	9935
2.23600	9932
2.23667	9929
2.23733	9926
2.23800	9923
2.23867	9920
2.23933	9917
2.24000	9914
2.24067	9911
2.24133	9908
2.24200	9905
2.24267	9902
2.24333	9899
2.24400	9897
2.24467	9894
2.24533	9891
2.24600	9888
2.24667	9885
2.24733	9882
2.24800	9879
2.24867	9876
2.24933	9873
2.25000	9870
2.25067	9867
2.25133	9864
2.25200	9862
2.25267	9859
2.25333	9856
2.25400	9853
2.25467	9850
2.25533	9848
2.25600	9845
2.25667	9842
2.25733	9840
2.25800	9837
2.25867	9834
2.25933	9832
2.26000	9829
2.26067	9827
2.26133	9824
2.26200	9822
2.26267	9819
2.26333	9817
2.26400	9814
2.26467	9812
2.26533	9809
2.26600	9807
2.26667	9805
2.26733	9802
2.26800	9800
2.26867	9798
2.26933	9795
2.27000	9793
2.27067	9791
2.27133	9788
2.27200	9786
2.27267	9784
2.27333	9782
2.27400	9779
2.27467	9777
2.27533	9775
2.27600	9773
2.27667	9771
2.27733	9769
2.27800	9767
2.27867	9765
2.27933	9763
2.28000	9761
2.28067	9759
2.28133	9757
2.28200	9755
2.28267	9753
2.28333	9751
2.28400	9749
2.28467	9747
2.28533	9746
2.28600	9744
2.28667	9742
2.28733	9740
2.28800	9739
2.28867	9737
2.28933	9735
2.29000	9734
2.29067	9732
2.29133	9731
2.29200	9729
2.29267	9727
2.29333	9726
2.29400	9724
2.29467	9723
2.29533	9721
2.29600	9720
2.29667	9718
2.29733	9717
2.29800	9715
2.29867	9714
2.29933	9713
2.30000	9712
2.30067	9710
2.30133	9709
2.30200	9708
2.30267	9707
2.30333	9706
2.30400	9705
2.30467	9705
2.30533	9704
2.30600	9703
2.30667	9703
2.30733	9702
2.30800	9702
2.30867	9701
2.30933	9701
2.31000	9701
2.31067	9700
2.31133	9700
2.31200	9700
2.31267	9700
2.31333	9700
2.31400	9700
2.31467	9700
2.31533	9700
2.31600	9701
2.31667	9701
2.31733	9702
2.31800	9702
2.31867	9702
2.31933	9703
2.32000	9704
2.32067	9704
2.32133	9705
2.32200	9706
2.32267	9707
2.32333	9708
2.32400	9709
2.32467	9710
2.32533	9712
2.32600	9713
2.32667	9714
2.32733	9715
2.32800	9717
2.32867	9718
2.32933	9720
2.33000	9721
2.33067	9723
2.33133	9724
2.33200	9726
2.33267	9727
2.33333	9729
2.33400	9731
2.33467	9732
2.33533	9734
2.33600	9736
2.33667	9737
2.33733	9739
2.33800	9741
2.33867	9742
2.33933	9744
2.34000	9746
2.34067	9748
2.34133	9749
2.34200	9751
2.34267	9753
2.34333	9755
2.34400	9756
2.34467	9758
2.34533	9760
2.34600	9762
2.34667	9763
2.34733	9765
2.34800	9767
2.34867	9768
2.34933	9770
2.35000	9772
2.35067	9773
2.35133	9775
2.35200	9776
2.35267	9778
2.35333	9779
2.35400	9781
2.35467	9782
2.35533	9783
2.35600	9785
2.35667	9786
2.35733	9787
2.35800	9788
2.35867	9789
2.35933	9790
2.36000	9791
2.36067	9792
2.36133	9793
2.36200	9794
2.36267	9795
2.36333	9795
2.36400	9796
2.36467	9796
2.36533	9797
2.36600	9797
2.36667	9798
2.36733	9798
2.36800	9799
2.36867	9799
2.36933	9799
2.37000	9799
2.37067	9800
2.37133	9800
2.37200	9800
2.37267	9800
2.37333	9800
2.37400	9799
2.37467	9799
2.37533	9799
2.37600	9798
2.37667	9798
2.37733	9797
2.37800	9796
2.37867	9796
2.37933	9795
2.38000	9794
2.38067	9793
2.38133	9792
2.38200	9791
2.38267	9790
2.38333	9789
2.38400	9788
2.38467	9787
2.38533	9786
2.38600	9785
2.38667	9783
2.38733	9782
2.38800	9781
2.38867	9779
2.38933	9778
2.39000	9776
2.39067	9775
2.39133	9774
2.39200	9772
2.39267	9771
2.39333	9770
2.39400	9768
2.39467	9767
2.39533	9765
2.39600	9764
2.39667	9763
2.39733	9761
2.39800	9760
2.39867	9759
2.39933	9758
2.40000	9756
2.40067	9755
2.40133	9754
2.40200	9753
2.40267	9752
2.40333	9751
2.40400	9750
2.40467	9750
2.40533	9749
2.40600	9748
2.40667	9748
2.40733	9748
2.40800	9747
2.40867	9747
2.40933	9747
2.41000	9747
2.41067	9747
2.41133	9748
2.41200	9748
2.41267	9749
2.41333	9749
2.41400	9750
2.41467	9751
2.41533	9752
2.41600	9753
2.41667	9754
2.41733	9755
2.41800	9756
2.41867	9757
2.41933	9759
2.42000	9760
2.42067	9761
2.42133	9763
2.42200	9764
2.42267	9765
2.42333	9766
2.42400	9768
2.42467	9769
2.42533	9770
2.42600	9771
2.42667	9772
2.42733	9773
2.42800	9774
2.42867	9775
2.42933	9775
2.43000	9776
2.43067	9777
2.43133	9777
2.43200	9777
2.43267	9777
2.43333	9777
2.43400	9777
2.43467	9777
2.43533	9776
2.43600	9775
2.43667	9774
2.43733	9773
2.43800	9772
2.43867	9771
2.43933	9769
2.44000	9767
2.44067	9765
2.44133	9763
2.44200	9761
2.44267	9758
2.44333	9755
2.44400	9752
2.44467	9749
2.44533	9746
2.44600	9742
2.44667	9739
2.44733	9735
2.44800	9731
2.44867	9727
2.44933	9722
2.45000	9718
2.45067	9713
2.45133	9708
2.45200	9703
2.45267	9697
2.45333	9692
2.45400	9686
2.45467	9681
2.45533	9675
2.45600	9669
2.45667	9663
2.45733	9657
2.45800	9651
2.45867	9644
2.45933	9638
2.46000	9632
2.46067	9625
2.46133	9618
2.46200	9612
2.46267	9605
2.46333	9598
2.46400	9591
2.46467	9585
2.46533	9578
2.46600	9571
2.46667	9564
2.46733	9557
2.46800	9550
2.46867	9543
2.46933	9536
2.47000	9529
2.47067	9522
2.47133	9515
2.47200	9507
2.47267	9500
2.47333	9493
2.47400	9486
2.47467	9479
2.47533	9473
2.47600	9466
2.47667	9459
2.47733	9452
2.47800	9445
2.47867	9438
2.47933	9431
2.48000	9425
2.48067	9418
2.48133	9411
2.48200	9405
2.48267	9398
2.48333	9391
2.48400	9385
2.48467	9378
2.48533	9372
2.48600	9366
2.48667	9359
2.48733	9353
2.48800	9347
2.48867	9341
2.48933	9335
2.49000	9329
2.49067	9323
2.49133	9317
2.49200	9312
2.49267	9306
2.49333	9300
2.49400	9294
2.49467	9289
2.49533	9283
2.49600	9278
2.49667	9272
2.49733	9267
2.49800	9262
2.49867	9256
2.49933	9251
2.50000	9246
2.50067	9241
2.50133	9236
2.50200	9231
2.50267	9226
2.50333	9221
2.50400	9216
2.50467	9211
2.50533	9207
2.50600	9202
2.50667	9197
2.50733	9192
2.50800	9188
2.50867	9183
2.50933	9179
2.51000	9174
2.51067	9170
2.51133	9165
2.51200	9161
2.51267	9157
2.51333	9152
2.51400	9148
2.51467	9144
2.51533	9139
2.51600	9135
2.51667	9131
2.51733	9127
2.51800	9123
2.51867	9118
2.51933	9114
2.52000	9110
2.52067	9106
2.52133	9102
2.52200	9098
2.52267	9094
2.52333	9090
2.52400	9086
2.52467	9082
2.52533	9078
2.52600	9073
2.52667	9069
2.52733	9065
2.52800	9061
2.52867	9057
2.52933	9053
2.53000	9049
2.53067	9045
2.53133	9041
2.53200	9037
2.53267	9033
2.53333	9029
2.53400	9025
2.53467	9022
2.53533	9018
2.53600	9014
2.53667	9010
2.53733	9006
2.53800	9002
2.53867	8998
2.53933	8994
2.54000	8990
2.54067	8986
2.54133	8982
2.54200	8978
2.54267	8975
2.54333	8971
2.54400	8967
2.54467	8963
2.54533	8959
2.54600	8955
2.54667	8952
2.54733	8948
2.54800	8944
2.54867	8941
2.54933	8937
2.55000	8933
2.55067	8930
2.55133	8926
2.55200	8922
2.55267	8919
2.55333	8915
2.55400	8912
2.55467	8908
2.55533	8905
2.55600	8901
2.55667	8898
2.55733	8894
2.55800	8891
2.55867	8887
2.55933	8884
2.56000	8880
2.56067	8877
2.56133	8873
2.56200	8870
2.56267	8867
2.56333	8863
2.56400	8860
2.56467	8857
2.56533	8854
2.56600	8851
2.56667	8847
2.56733	8844
2.56800	8841
2.56867	8838
2.56933	8835
2.57000	8832
2.57067	8829
2.57133	8826
2.57200	8823
2.57267	8820
2.57333	8817
2.57400	8814
2.57467	8811
2.57533	8808
2.57600	8805
2.57667	8802
2.57733	8800
2.57800	8797
2.57867	8794
2.57933	8791
2.58000	8789
2.58067	8786
2.58133	8783
2.58200	8781
2.58267	8778
2.58333	8775
2.58400	8773
2.58467	8770
2.58533	8768
2.58600	8765
2.58667	8762
2.58733	8760
2.58800	8757
2.58867	8754
2.58933	8752
2.59000	8749
2.59067	8747
2.59133	8744
2.59200	8742
2.59267	8739
2.59333	8737
2.59400	8734
2.59467	8732
2.59533	8729
2.59600	8727
2.59667	8724
2.59733	8722
2.59800	8719
2.59867	8717
2.59933	8714
2.60000	8712
2.60067	8709
2.60133	8707
2.60200	8705
2.60267	8702
2.60333	8700
2.60400	8698
2.60467	8695
2.60533	8693
2.60600	8691
2.60667	8688
2.60733	8686
2.60800	8684
2.60867	8682
2.60933	8680
2.61000	8677
2.61067	8675
2.61133	8673
2.61200	8671
2.61267	8669
2.61333	8666
2.61400	8664
2.61467	8662
2.61533	8660
2.61600	8658
2.61667	8656
2.61733	8654
2.61800	8651
2.61867	8649
2.61933	8647
2.62000	8645
2.62067	8643
2.62133	8641
2.62200	8639
2.62267	8637
2.62333	8635
2.62400	8633
2.62467	8631
2.62533	8630
2.62600	8628
2.62667	8626
2.62733	8624
2.62800	8622
2.62867	8620
2.62933	8619
2.63000	8617
2.63067	8615
2.63133	8614
2.63200	8612
2.63267	8610
2.63333	8608
2.63400	8607
2.63467	8605
2.63533	8603
2.63600	8602
2.63667	8600
2.63733	8598
2.63800	8597
2.63867	8595
2.63933	8593
2.64000	8591
2.64067	8590
2.64133	8588
2.64200	8586
2.64267	8584
2.64333	8583
2.64400	8581
2.64467	8579
2.64533	8578
2.64600	8576
2.64667	8574
2.64733	8572
2.64800	8571
2.64867	8569
2.64933	8567
2.65000	8566
2.65067	8564
2.65133	8562
2.65200	8560
2.65267	8559
2.65333	8557
2.65400	8555
2.65467	8554
2.65533	8552
2.65600	8550
2.65667	8548
2.65733	8547
2.65800	8545
2.65867	8543
2.65933	8541
2.66000	8540
2.66067	8538
2.66133	8536
2.66200	8534
2.66267	8532
2.66333	8531
2.66400	8529
2.66467	8527
2.66533	8525
2.66600	8523
2.66667	8521
2.66733	8519
2.66800	8517
2.66867	8515
2.66933	8513
2.67000	8511
2.67067	8509
2.67133	8507
2.67200	8505
2.67267	8503
2.67333	8501
2.67400	8498
2.67467	8496
2.67533	8494
2.67600	8492
2.67667	8490
2.67733	8487
2.67800	8485
2.67867	8483
2.67933	8480
2.68000	8478
2.68067	8476
2.68133	8473
2.68200	8471
2.68267	8469
2.68333	8466
2.68400	8464
2.68467	8461
2.68533	8459
2.68600	8457
2.68667	8454
2.68733	8452
2.68800	8450
2.68867	8447
2.68933	8445
2.69000	8443
2.69067	8440
2.69133	8438
2.69200	8436
2.69267	8433
2.69333	8431
2.69400	8429
2.69467	8427
2.69533	8425
2.69600	8422
2.69667	8420
2.69733	8418
2.69800	8416
2.69867	8414
2.69933	8412
2.70000	8410
2.70067	8408
2.70133	8406
2.70200	8404
2.70267	8402
2.70333	8400
2.70400	8398
2.70467	8396
2.70533	8394
2.70600	8392
2.70667	8390
2.70733	8388
2.70800	8386
2.70867	8385
2.70933	8383
2.71000	8381
2.71067	8379
2.71133	8377
2.71200	8375
2.71267	8374
2.71333	8372
2.71400	8370
2.71467	8368
2.71533	8367
2.71600	8365
2.71667	8363
2.71733	8361
2.71800	8360
2.71867	8358
2.71933	8356
2.72000	8355
2.72067	8353
2.72133	8351
2.72200	8350
2.72267	8348
2.72333	8347
2.72400	8345
2.72467	8344
2.72533	8342
2.72600	8341
2.72667	8339
2.72733	8338
2.72800	8337
2.72867	8335
2.72933	8334
2.73000	8332
2.73067	8331
2.73133	8330
2.73200	8328
2.73267	8327
2.73333	8326
2.73400	8324
2.73467	8323
2.73533	8322
2.73600	8320
2.73667	8319
2.73733	8318
2.73800	8316
2.73867	8315
2.73933	8314
2.74000	8313
2.74067	8311
2.74133	8310
2.74200	8309
2.74267	8308
2.74333	8307
2.74400	8306
2.74467	8305
2.74533	8303
2.74600	8302
2.74667	8301
2.74733	8300
2.74800	8299
2.74867	8298
2.74933	8297
2.75000	8296
2.75067	8295
2.75133	8294
2.75200	8294
2.75267	8293
2.75333	8292
2.75400	8291
2.75467	8290
2.75533	8289
2.75600	8288
2.75667	8288
2.75733	8287
2.75800	8286
2.75867	8285
2.75933	8285
2.76000	8284
2.76067	8283
2.76133	8283
2.76200	8282
2.76267	8282
2.76333	8281
2.76400	8281
2.76467	8281
2.76533	8280
2.76600	8280
2.76667	8280
2.76733	8280
2.76800	8280
2.76867	8280
2.76933	8280
2.77000	8280
2.77067	8280
2.77133	8280
2.77200	8281
2.77267	8281
2.77333	8282
2.77400	8282
2.77467	8283
2.77533	8284
2.77600	8285
2.77667	8286
2.77733	8287
2.77800	8288
2.77867	8290
2.77933	8291
2.78000	8293
2.78067	8295
2.78133	8297
2.78200	8299
2.78267	8302
2.78333	8304
2.78400	8307
2.78467	8310
2.78533	8313
2.78600	8317
2.78667	8320
2.78733	8324
2.78800	8328
2.78867	8332
2.78933	8336
2.79000	8341
2.79067	8346
2.79133	8351
2.79200	8356
2.79267	8362
2.79333	8368
2.79400	8374
2.79467	8380
2.79533	8387
2.79600	8393
2.79667	8400
2.79733	8408
2.79800	8415
2.79867	8423
2.79933	8430
2.80000	8438
2.80067	8447
2.80133	8455
2.80200	8464
2.80267	8472
2.80333	8481
2.80400	8490
2.80467	8500
2.80533	8509
2.80600	8518
2.80667	8528
2.80733	8538
2.80800	8547
2.80867	8557
2.80933	8567
2.81000	8577
2.81067	8586
2.81133	8596
2.81200	8606
2.81267	8616
2.81333	8625
2.81400	8635
2.81467	8644
2.81533	8654
2.81600	8663
2.81667	8672
2.81733	8681
2.81800	8689
2.81867	8697
2.81933	8706
2.82000	8713
2.82067	8721
2.82133	8728
2.82200	8735
2.82267	8742
2.82333	8748
2.82400	8754
2.82467	8759
2.82533	8765
2.82600	8770
2.82667	8774
2.82733	8778
2.82800	8782
2.82867	8785
2.82933	8788
2.83000	8790
2.83067	8792
2.83133	8794
2.83200	8795
2.83267	8796
2.83333	8797
2.83400	8797
2.83467	8796
2.83533	8796
2.83600	8795
2.83667	8793
2.83733	8791
2.83800	8789
2.83867	8787
2.83933	8784
2.84000	8781
2.84067	8777
2.84133	8773
2.84200	8769
2.84267	8765
2.84333	8760
2.84400	8755
2.84467	8750
2.84533	8744
2.84600	8738
2.84667	8732
2.84733	8726
2.84800	8719
2.84867	8712
2.84933	8706
2.85000	8698
2.85067	8691
2.85133	8684
2.85200	8676
2.85267	8669
2.85333	8661
2.85400	8653
2.85467	8645
2.85533	8637
2.85600	8629
2.85667	8621
2.85733	8612
2.85800	8604
2.85867	8596
2.85933	8587
2.86000	8579
2.86067	8570
2.86133	8562
2.86200	8553
2.86267	8545
2.86333	8536
2.86400	8528
2.86467	8519
2.86533	8511
2.86600	8502
2.86667	8494
2.86733	8485
2.86800	8477
2.86867	8469
2.86933	8461
2.87000	8453
2.87067	8445
2.87133	8437
2.87200	8429
2.87267	8422
2.87333	8415
2.87400	8407
2.87467	8400
2.87533	8393
2.87600	8387
2.87667	8380
2.87733	8374
2.87800	8368
2.87867	8362
2.87933	8356
2.88000	8350
2.88067	8345
2.88133	8340
2.88200	8335
2.88267	8330
2.88333	8326
2.88400	8322
2.88467	8318
2.88533	8314
2.88600	8311
2.88667	8308
2.88733	8305
2.88800	8302
2.88867	8300
2.88933	8298
2.89000	8297
2.89067	8296
2.89133	8295
2.89200	8295
2.89267	8295
2.89333	8295
2.89400	8296
2.89467	8297
2.89533	8298
2.89600	8300
2.89667	8302
2.89733	8305
2.89800	8307
2.89867	8311
2.89933	8314
2.90000	8318
2.90067	8323
2.90133	8327
2.90200	8332
2.90267	8337
2.90333	8343
2.90400	8348
2.90467	8354
2.90533	8361
2.90600	8367
2.90667	8374
2.90733	8381
2.90800	8388
2.90867	8395
2.90933	8402
2.91000	8409
2.91067	8416
2.91133	8424
2.91200	8431
2.91267	8439
2.91333	8446
2.91400	8453
2.91467	8461
2.91533	8468
2.91600	8475
2.91667	8482
2.91733	8488
2.91800	8495
2.91867	8501
2.91933	8508
2.92000	8514
2.92067	8519
2.92133	8525
2.92200	8530
2.92267	8535
2.92333	8540
2.92400	8544
2.92467	8548
2.92533	8552
2.92600	8556
2.92667	8559
2.92733	8562
2.92800	8564
2.92867	8566
2.92933	8568
2.93000	8570
2.93067	8571
2.93133	8571
2.93200	8572
2.93267	8572
2.93333	8572
2.93400	8571
2.93467	8570
2.93533	8569
2.93600	8567
2.93667	8565
2.93733	8563
2.93800	8561
2.93867	8558
2.93933	8555
2.94000	8551
2.94067	8547
2.94133	8543
2.94200	8539
2.94267	8535
2.94333	8530
2.94400	8525
2.94467	8519
2.94533	8513
2.94600	8508
2.94667	8501
2.94733	8495
2.94800	8489
2.94867	8482
2.94933	8475
2.95000	8468
2.95067	8461
2.95133	8453
2.95200	8446
2.95267	8438
2.95333	8430
2.95400	8422
2.95467	8414
2.95533	8406
2.95600	8398
2.95667	8389
2.95733	8380
2.95800	8372
2.95867	8363
2.95933	8354
2.96000	8345
2.96067	8336
2.96133	8327
2.96200	8318
2.96267	8309
2.96333	8300
2.96400	8291
2.96467	8282
2.96533	8273
2.96600	8263
2.96667	8254
2.96733	8245
2.96800	8235
2.96867	8226
2.96933	8217
2.97000	8208
2.97067	8198
2.97133	8189
2.97200	8180
2.97267	8171
2.97333	8162
2.97400	8153
2.97467	8144
2.97533	8135
2.97600	8126
2.97667	8117
2.97733	8108
2.97800	8099
2.97867	8090
2.97933	8081
2.98000	8073
2.98067	8064
2.98133	8056
2.98200	8047
2.98267	8039
2.98333	8030
2.98400	8022
2.98467	8014
2.98533	8005
2.98600	7997
2.98667	7989
2.98733	7981
2.98800	7973
2.98867	7965
2.98933	7957
2.99000	7950
2.99067	7942
2.99133	7934
2.99200	7927
2.99267	7919
2.99333	7912
2.99400	7905
2.99467	7898
2.99533	7890
2.99600	7883
2.99667	7876
2.99733	7869
2.99800	7863
2.99867	7856
2.99933	7849
3.00000	7843
3.00067	7836
3.00133	7830
3.00200	7824
3.00267	7817
3.00333	7811
3.00400	7805
3.00467	7799
3.00533	7793
3.00600	7787
3.00667	7781
3.00733	7776
3.00800	7770
3.00867	7764
3.00933	7759
3.01000	7753
3.01067	7747
3.01133	7742
3.01200	7736
3.01267	7731
3.01333	7726
3.01400	7720
3.01467	7715
3.01533	7710
3.01600	7705
3.01667	7700
3.01733	7695
3.01800	7690
3.01867	7685
3.01933	7680
3.02000	7675
3.02067	7670
3.02133	7666
3.02200	7661
3.02267	7656
3.02333	7652
3.02400	7647
3.02467	7642
3.02533	7638
3.02600	7633
3.02667	7629
3.02733	7625
3.02800	7620
3.02867	7616
3.02933	7611
3.03000	7607
3.03067	7603
3.03133	7599
3.03200	7595
3.03267	7591
3.03333	7586
3.03400	7582
3.03467	7578
3.03533	7575
3.03600	7571
3.03667	7567
3.03733	7563
3.03800	7559
3.03867	7555
3.03933	7551
3.04000	7548
3.04067	7544
3.04133	7540
3.04200	7536
3.04267	7532
3.04333	7529
3.04400	7525
3.04467	7521
3.04533	7518
3.04600	7514
3.04667	7511
3.04733	7507
3.04800	7504
3.04867	7501
3.04933	7497
3.05000	7494
3.05067	7491
3.05133	7487
3.05200	7484
3.05267	7481
3.05333	7478
3.05400	7475
3.05467	7471
3.05533	7468
3.05600	7465
3.05667	7462
3.05733	7459
3.05800	7456
3.05867	7453
3.05933	7450
3.06000	7447
3.06067	7444
3.06133	7441
3.06200	7438
3.06267	7435
3.06333	7432
3.06400	7429
3.06467	7426
3.06533	7423
3.06600	7420
3.06667	7418
3.06733	7415
3.06800	7412
3.06867	7409
3.06933	7406
3.07000	7403
3.07067	7400
3.07133	7397
3.07200	7394
3.07267	7391
3.07333	7388
3.07400	7386
3.07467	7383
3.07533	7380
3.07600	7377
3.07667	7374
3.07733	7371
3.07800	7368
3.07867	7365
3.07933	7362
3.08000	7359
3.08067	7356
3.08133	7353
3.08200	7350
3.08267	7347
3.08333	7344
3.08400	7341
3.08467	7338
3.08533	7335
3.08600	7332
3.08667	7328
3.08733	7325
3.08800	7322
3.08867	7319
3.08933	7316
3.09000	7313
3.09067	7309
3.09133	7306
3.09200	7303
3.09267	7300
3.09333	7297
3.09400	7293
3.09467	7290
3.09533	7287
3.09600	7283
3.09667	7280
3.09733	7277
3.09800	7274
3.09867	7270
3.09933	7267
3.10000	7264
3.10067	7261
3.10133	7257
3.10200	7254
3.10267	7251
3.10333	7247
3.10400	7244
3.10467	7241
3.10533	7238
3.10600	7234
3.10667	7231
3.10733	7228
3.10800	7224
3.10867	7221
3.10933	7218
3.11000	7215
3.11067	7211
3.11133	7208
3.11200	7205
3.11267	7201
3.11333	7198
3.11400	7195
3.11467	7191
3.11533	7188
3.11600	7185
3.11667	7182
3.11733	7178
3.11800	7175
3.11867	7172
3.11933	7168
3.12000	7165
3.12067	7162
3.12133	7159
3.12200	7156
3.12267	7152
3.12333	7149
3.12400	7146
3.12467	7143
3.12533	7140
3.12600	7136
3.12667	7133
3.12733	7130
3.12800	7127
3.12867	7124
3.12933	7121
3.13000	7118
3.13067	7115
3.13133	7112
3.13200	7109
3.13267	7106
3.13333	7103
3.13400	7100
3.13467	7097
3.13533	7094
3.13600	7091
3.13667	7088
3.13733	7085
3.13800	7082
3.13867	7079
3.13933	7077
3.14000	7074
3.14067	7071
3.14133	7068
3.14200	7065
3.14267	7062
3.14333	7060
3.14400	7057
3.14467	7054
3.14533	7051
3.14600	7048
3.14667	7046
3.14733	7043
3.14800	7040
3.14867	7038
3.14933	7035
3.15000	7032
3.15067	7030
3.15133	7027
3.15200	7025
3.15267	7022
3.15333	7020
3.15400	7017
3.15467	7015
3.15533	7012
3.15600	7010
3.15667	7007
3.15733	7005
3.15800	7002
3.15867	7000
3.15933	6997
3.16000	6995
3.16067	6993
3.16133	6990
3.16200	6988
3.16267	6986
3.16333	6983
3.16400	6981
3.16467	6979
3.16533	6976
3.16600	6974
3.16667	6972
3.16733	6970
3.16800	6967
3.16867	6965
3.16933	6963
3.17000	6961
3.17067	6958
3.17133	6956
3.17200	6954
3.17267	6952
3.17333	6950
3.17400	6947
3.17467	6945
3.17533	6943
3.17600	6941
3.17667	6939
3.17733	6937
3.17800	6935
3.17867	6933
3.17933	6931
3.18000	6929
3.18067	6927
3.18133	6925
3.18200	6923
3.18267	6921
3.18333	6919
3.18400	6917
3.18467	6915
3.18533	6913
3.18600	6911
3.18667	6909
3.18733	6907
3.18800	6905
3.18867	6903
3.18933	6901
3.19000	6899
3.19067	6896
3.19133	6894
3.19200	6892
3.19267	6890
3.19333	6888
3.19400	6886
3.19467	6884
3.19533	6882
3.19600	6879
3.19667	6877
3.19733	6875
3.19800	6873
3.19867	6871
3.19933	6869
3.20000	6866
3.20067	6864
3.20133	6862
3.20200	6860
3.20267	6857
3.20333	6855
3.20400	6853
3.20467	6851
3.20533	6848
3.20600	6846
3.20667	6844
3.20733	6841
3.20800	6839
3.20867	6837
3.20933	6834
3.21000	6832
3.21067	6830
3.21133	6827
3.21200	6825
3.21267	6823
3.21333	6821
3.21400	6818
3.21467	6816
3.21533	6814
3.21600	6812
3.21667	6809
3.21733	6807
3.21800	6805
3.21867	6802
3.21933	6800
3.22000	6798
3.22067	6795
3.22133	6793
3.22200	6791
3.22267	6788
3.22333	6786
3.22400	6784
3.22467	6781
3.22533	6779
3.22600	6777
3.22667	6775
3.22733	6772
3.22800	6770
3.22867	6768
3.22933	6765
3.23000	6763
3.23067	6761
3.23133	6758
3.23200	6756
3.23267	6754
3.23333	6752
3.23400	6750
3.23467	6747
3.23533	6745
3.23600	6743
3.23667	6740
3.23733	6738
3.23800	6736
3.23867	6734
3.23933	6732
3.24000	6729
3.24067	6727
3.24133	6725
3.24200	6723
3.24267	6720
3.24333	6718
3.24400	6716
3.24467	6714
3.24533	6711
3.24600	6709
3.24667	6707
3.24733	6705
3.24800	6703
3.24867	6700
3.24933	6698
3.25000	6696
3.25067	6694
3.25133	6692
3.25200	6689
3.25267	6687
3.25333	6685
3.25400	6683
3.25467	6681
3.25533	6678
3.25600	6676
3.25667	6674
3.25733	6672
3.25800	6670
3.25867	6668
3.25933	6665
3.26000	6663
3.26067	6661
3.26133	6659
3.26200	6657
3.26267	6655
3.26333	6653
3.26400	6650
3.26467	6648
3.26533	6646
3.26600	6644
3.26667	6642
3.26733	6640
3.26800	6638
3.26867	6636
3.26933	6634
3.27000	6632
3.27067	6630
3.27133	6628
3.27200	6626
3.27267	6623
3.27333	6621
3.27400	6619
3.27467	6617
3.27533	6615
3.27600	6613
3.27667	6611
3.27733	6610
3.27800	6608
3.27867	6606
3.27933	6604
3.28000	6602
3.28067	6600
3.28133	6598
3.28200	6596
3.28267	6594
3.28333	6593
3.28400	6591
3.28467	6589
3.28533	6587
3.28600	6585
3.28667	6584
3.28733	6582
3.28800	6580
3.28867	6578
3.28933	6576
3.29000	6575
3.29067	6573
3.29133	6571
3.29200	6570
3.29267	6568
3.29333	6566
3.29400	6565
3.29467	6563
3.29533	6561
3.29600	6560
3.29667	6558
3.29733	6557
3.29800	6555
3.29867	6553
3.29933	6552
3.30000	6550
3.30067	6549
3.30133	6547
3.30200	6546
3.30267	6544
3.30333	6543
3.30400	6541
3.30467	6540
3.30533	6538
3.30600	6537
3.30667	6535
3.30733	6534
3.30800	6532
3.30867	6531
3.30933	6530
3.31000	6528
3.31067	6527
3.31133	6525
3.31200	6524
3.31267	6523
3.31333	6521
3.31400	6520
3.31467	6518
3.31533	6517
3.31600	6515
3.31667	6514
3.31733	6512
3.31800	6511
3.31867	6509
3.31933	6508
3.32000	6506
3.32067	6505
3.32133	6503
3.32200	6502
3.32267	6500
3.32333	6499
3.32400	6497
3.32467	6496
3.32533	6494
3.32600	6493
3.32667	6491
3.32733	6490
3.32800	6489
3.32867	6487
3.32933	6486
3.33000	6485
3.33067	6483
3.33133	6482
3.33200	6481
3.33267	6479
3.33333	6478
3.33400	6477
3.33467	6475
3.33533	6474
3.33600	6473
3.33667	6471
3.33733	6470
3.33800	6469
3.33867	6467
3.33933	6466
3.34000	6465
3.34067	6463
3.34133	6462
3.34200	6461
3.34267	6459
3.34333	6458
3.34400	6457
3.34467	6455
3.34533	6454
3.34600	6453
3.34667	6451
3.34733	6450
3.34800	6449
3.34867	6448
3.34933	6446
3.35000	6445
3.35067	6444
3.35133	6442
3.35200	6441
3.35267	6440
3.35333	6438
3.35400	6437
3.35467	6436
3.35533	6435
3.35600	6434
3.35667	6432
3.35733	6431
3.35800	6430
3.35867	6429
3.35933	6428
3.36000	6427
3.36067	6426
3.36133	6425
3.36200	6424
3.36267	6424
3.36333	6423
3.36400	6422
3.36467	6421
3.36533	6420
3.36600	6420
3.36667	6419
3.36733	6418
3.36800	6418
3.36867	6417
3.36933	6417
3.37000	6416
3.37067	6416
3.37133	6415
3.37200	6415
3.37267	6415
3.37333	6414
3.37400	6414
3.37467	6414
3.37533	6414
3.37600	6413
3.37667	6413
3.37733	6413
3.37800	6413
3.37867	6413
3.37933	6413
3.38000	6413
3.38067	6413
3.38133	6413
3.38200	6412
3.38267	6412
3.38333	6412
3.38400	6413
3.38467	6413
3.38533	6413
3.38600	6413
3.38667	6413
3.38733	6413
3.38800	6413
3.38867	6413
3.38933	6414
3.39000	6414
3.39067	6414
3.39133	6414
3.39200	6415
3.39267	6415
3.39333	6415
3.39400	6415
3.39467	6416
3.39533	6416
3.39600	6417
3.39667	6417
3.39733	6418
3.39800	6418
3.39867	6419
3.39933	6419
3.40000	6420
3.40067	6421
3.40133	6421
3.40200	6422
3.40267	6423
3.40333	6423
3.40400	6424
3.40467	6425
3.40533	6426
3.40600	6427
3.40667	6427
3.40733	6428
3.40800	6429
3.40867	6430
3.40933	6431
3.41000	6432
3.41067	6433
3.41133	6434
3.41200	6434
3.41267	6435
3.41333	6436
3.41400	6437
3.41467	6438
3.41533	6439
3.41600	6440
3.41667	6441
3.41733	6442
3.41800	6443
3.41867	6444
3.41933	6445
3.42000	6446
3.42067	6447
3.42133	6448
3.42200	6449
3.42267	6450
3.42333	6451
3.42400	6452
3.42467	6453
3.42533	6454
3.42600	6455
3.42667	6456
3.42733	6457
3.42800	6458
3.42867	6459
3.42933	6460
3.43000	6461
3.43067	6462
3.43133	6462
3.43200	6463
3.43267	6464
3.43333	6465
3.43400	6466
3.43467	6466
3.43533	6467
3.43600	6468
3.43667	6468
3.43733	6469
3.43800	6469
3.43867	6470
3.43933	6470
3.44000	6470
3.44067	6471
3.44133	6471
3.44200	6471
3.44267	6471
3.44333	6471
3.44400	6471
3.44467	6472
3.44533	6472
3.44600	6472
3.44667	6471
3.44733	6471
3.44800	6471
3.44867	6471
3.44933	6471
3.45000	6470
3.45067	6470
3.45133	6470
3.45200	6469
3.45267	6469
3.45333	6468
3.45400	6467
3.45467	6467
3.45533	6466
3.45600	6465
3.45667	6464
3.45733	6464
3.45800	6463
3.45867	6462
3.45933	6461
3.46000	6460
3.46067	6459
3.46133	6457
3.46200	6456
3.46267	6455
3.46333	6454
3.46400	6453
3.46467	6451
3.46533	6450
3.46600	6448
3.46667	6447
3.46733	6445
3.46800	6444
3.46867	6442
3.46933	6441
3.47000	6439
3.47067	6437
3.47133	6435
3.47200	6434
3.47267	6432
3.47333	6430
3.47400	6428
3.47467	6426
3.47533	6424
3.47600	6422
3.47667	6421
3.47733	6419
3.47800	6417
3.47867	6415
3.47933	6413
3.48000	6411
3.48067	6409
3.48133	6407
3.48200	6404
3.48267	6402
3.48333	6400
3.48400	6398
3.48467	6396
3.48533	6394
3.48600	6392
3.48667	6390
3.48733	6388
3.48800	6386
3.48867	6384
3.48933	6382
3.49000	6380
3.49067	6378
3.49133	6376
3.49200	6374
3.49267	6372
3.49333	6370
3.49400	6368
3.49467	6366
3.49533	6364
3.49600	6362
3.49667	6360
3.49733	6358
3.49800	6356
3.49867	6354
3.49933	6352
3.50000	6350
3.50067	6349
3.50133	6347
3.50200	6345
3.50267	6343
3.50333	6342
3.50400	6340
3.50467	6338
3.50533	6337
3.50600	6335
3.50667	6333
3.50733	6332
3.50800	6330
3.50867	6329
3.50933	6328
3.51000	6326
3.51067	6325
3.51133	6324
3.51200	6323
3.51267	6322
3.51333	6320
3.51400	6319
3.51467	6319
3.51533	6318
3.51600	6317
3.51667	6316
3.51733	6315
3.51800	6315
3.51867	6314
3.51933	6313
3.52000	6313
3.52067	6312
3.52133	6312
3.52200	6311
3.52267	6311
3.52333	6311
3.52400	6310
3.52467	6310
3.52533	6310
3.52600	6310
3.52667	6310
3.52733	6310
3.52800	6310
3.52867	6310
3.52933	6310
3.53000	6310
3.53067	6310
3.53133	6311
3.53200	6311
3.53267	6311
3.53333	6311
3.53400	6312
3.53467	6312
3.53533	6313
3.53600	6313
3.53667	6313
3.53733	6314
3.53800	6314
3.53867	6315
3.53933	6315
3.54000	6316
3.54067	6316
3.54133	6317
3.54200	6317
3.54267	6318
3.54333	6318
3.54400	6319
3.54467	6320
3.54533	6320
3.54600	6321
3.54667	6322
3.54733	6322
3.54800	6323
3.54867	6323
3.54933	6324
3.55000	6325
3.55067	6325
3.55133	6326
3.55200	6326
3.55267	6327
3.55333	6327
3.55400	6328
3.55467	6328
3.55533	6329
3.55600	6329
3.55667	6330
3.55733	6330
3.55800	6331
3.55867	6331
3.55933	6332
3.56000	6332
3.56067	6332
3.56133	6333
3.56200	6333
3.56267	6333
3.56333	6334
3.56400	6334
3.56467	6334
3.56533	6334
3.56600	6334
3.56667	6334
3.56733	6335
3.56800	6335
3.56867	6335
3.56933	6335
3.57000	6335
3.57067	6334
3.57133	6334
3.57200	6334
3.57267	6334
3.57333	6334
3.57400	6334
3.57467	6333
3.57533	6333
3.57600	6333
3.57667	6332
3.57733	6332
3.57800	6332
3.57867	6331
3.57933	6331
3.58000	6330
3.58067	6330
3.58133	6329
3.58200	6328
3.58267	6328
3.58333	6327
3.58400	6327
3.58467	6326
3.58533	6326
3.58600	6325
3.58667	6325
3.58733	6324
3.58800	6324
3.58867	6323
3.58933	6322
3.59000	6322
3.59067	6321
3.59133	6321
3.59200	6320
3.59267	6320
3.59333	6319
3.59400	6319
3.59467	6318
3.59533	6318
3.59600	6317
3.59667	6317
3.59733	6316
3.59800	6316
3.59867	6315
3.59933	6315
3.60000	6314
3.60067	6314
3.60133	6313
3.60200	6313
3.60267	6312
3.60333	6311
3.60400	6311
3.60467	6310
3.60533	6310
3.60600	6309
3.60667	6309
3.60733	6308
3.60800	6308
3.60867	6307
3.60933	6307
3.61000	6306
3.61067	6306
3.61133	6305
3.61200	6305
3.61267	6304
3.61333	6303
3.61400	6303
3.61467	6302
3.61533	6301
3.61600	6300
3.61667	6300
3.61733	6299
3.61800	6298
3.61867	6297
3.61933	6296
3.62000	6295
3.62067	6294
3.62133	6293
3.62200	6292
3.62267	6291
3.62333	6290
3.62400	6288
3.62467	6287
3.62533	6286
3.62600	6285
3.62667	6283
3.62733	6282
3.62800	6280
3.62867	6279
3.62933	6277
3.63000	6275
3.63067	6274
3.63133	6272
3.63200	6270
3.63267	6268
3.63333	6267
3.63400	6265
3.63467	6263
3.63533	6261
3.63600	6259
3.63667	6257
3.63733	6254
3.63800	6252
3.63867	6250
3.63933	6248
3.64000	6245
3.64067	6243
3.64133	6241
3.64200	6238
3.64267	6236
3.64333	6233
3.64400	6230
3.64467	6227
3.64533	6224
3.64600	6222
3.64667	6219
3.64733	6216
3.64800	6212
3.64867	6209
3.64933	6206
3.65000	6203
3.65067	6199
3.65133	6196
3.65200	6193
3.65267	6189
3.65333	6186
3.65400	6182
3.65467	6178
3.65533	6175
3.65600	6171
3.65667	6168
3.65733	6164
3.65800	6161
3.65867	6157
3.65933	6153
3.66000	6150
3.66067	6146
3.66133	6142
3.66200	6138
3.66267	6135
3.66333	6131
3.66400	6127
3.66467	6123
3.66533	6119
3.66600	6116
3.66667	6112
3.66733	6108
3.66800	6104
3.66867	6100
3.66933	6096
3.67000	6092
3.67067	6088
3.67133	6085
3.67200	6081
3.67267	6077
3.67333	6073
3.67400	6069
3.67467	6065
3.67533	6061
3.67600	6057
3.67667	6054
3.67733	6050
3.67800	6046
3.67867	6042
3.67933	6038
3.68000	6035
3.68067	6031
3.68133	6027
3.68200	6023
3.68267	6020
3.68333	6016
3.68400	6012
3.68467	6009
3.68533	6005
3.68600	6001
3.68667	5998
3.68733	5994
3.68800	5990
3.68867	5987
3.68933	5983
3.69000	5980
3.69067	5976
3.69133	5973
3.69200	5969
3.69267	5966
3.69333	5963
3.69400	5959
3.69467	5956
3.69533	5953
3.69600	5949
3.69667	5946
3.69733	5943
3.69800	5940
3.69867	5937
3.69933	5933
3.70000	5930
3.70067	5927
3.70133	5924
3.70200	5921
3.70267	5918
3.70333	5915
3.70400	5912
3.70467	5909
3.70533	5906
3.70600	5903
3.70667	5900
3.70733	5897
3.70800	5894
3.70867	5891
3.70933	5888
3.71000	5886
3.71067	5883
3.71133	5880
3.71200	5877
3.71267	5874
3.71333	5872
3.71400	5869
3.71467	5866
3.71533	5864
3.71600	5861
3.71667	5858
3.71733	5856
3.71800	5853
3.71867	5851
3.71933	5848
3.72000	5845
3.72067	5843
3.72133	5840
3.72200	5838
3.72267	5835
3.72333	5833
3.72400	5830
3.72467	5827
3.72533	5825
3.72600	5823
3.72667	5820
3.72733	5818
3.72800	5815
3.72867	5813
3.72933	5810
3.73000	5808
3.73067	5806
3.73133	5803
3.73200	5801
3.73267	5799
3.73333	5796
3.73400	5794
3.73467	5792
3.73533	5790
3.73600	5787
3.73667	5785
3.73733	5783
3.73800	5780
3.73867	5778
3.73933	5776
3.74000	5774
3.74067	5772
3.74133	5769
3.74200	5767
3.74267	5765
3.74333	5763
3.74400	5761
3.74467	5759
3.74533	5756
3.74600	5754
3.74667	5752
3.74733	5750
3.74800	5748
3.74867	5746
3.74933	5744
3.75000	5741
3.75067	5739
3.75133	5737
3.75200	5735
3.75267	5733
3.75333	5731
3.75400	5729
3.75467	5727
3.75533	5725
3.75600	5723
3.75667	5721
3.75733	5719
3.75800	5717
3.75867	5715
3.75933	5713
3.76000	5711
3.76067	5710
3.76133	5708
3.76200	5706
3.76267	5704
3.76333	5702
3.76400	5700
3.76467	5698
3.76533	5696
3.76600	5694
3.76667	5692
3.76733	5691
3.76800	5689
3.76867	5687
3.76933	5685
3.77000	5683
3.77067	5682
3.77133	5680
3.77200	5678
3.77267	5676
3.77333	5675
3.77400	5673
3.77467	5671
3.77533	5670
3.77600	5668
3.77667	5667
3.77733	5665
3.77800	5663
3.77867	5662
3.77933	5660
3.78000	5659
3.78067	5657
3.78133	5655
3.78200	5654
3.78267	5652
3.78333	5651
3.78400	5649
3.78467	5648
3.78533	5646
3.78600	5644
3.78667	5643
3.78733	5641
3.78800	5640
3.78867	5638
3.78933	5636
3.79000	5635
3.79067	5633
3.79133	5632
3.79200	5630
3.79267	5628
3.79333	5627
3.79400	5625
3.79467	5624
3.79533	5622
3.79600	5621
3.79667	5619
3.79733	5617
3.79800	5616
3.79867	5614
3.79933	5613
3.80000	5611
3.80067	5610
3.80133	5608
3.80200	5607
3.80267	5606
3.80333	5604
3.80400	5603
3.80467	5601
3.80533	5600
3.80600	5599
3.80667	5597
3.80733	5596
3.80800	5594
3.80867	5593
3.80933	5591
3.81000	5590
3.81067	5589
3.81133	5587
3.81200	5586
3.81267	5585
3.81333	5583
3.81400	5582
3.81467	5581
3.81533	5580
3.81600	5578
3.81667	5577
3.81733	5576
3.81800	5575
3.81867	5574
3.81933	5573
3.82000	5571
3.82067	5570
3.82133	5569
3.82200	5568
3.82267	5567
3.82333	5566
3.82400	5565
3.82467	5563
3.82533	5562
3.82600	5561
3.82667	5560
3.82733	5559
3.82800	5557
3.82867	5556
3.82933	5555
3.83000	5554
3.83067	5553
3.83133	5551
3.83200	5550
3.83267	5549
3.83333	5548
3.83400	5546
3.83467	5545
3.83533	5544
3.83600	5543
3.83667	5541
3.83733	5540
3.83800	5539
3.83867	5538
3.83933	5537
3.84000	5535
3.84067	5534
3.84133	5533
3.84200	5532
3.84267	5530
3.84333	5529
3.84400	5528
3.84467	5527
3.84533	5525
3.84600	5524
3.84667	5523
3.84733	5522
3.84800	5520
3.84867	5519
3.84933	5518
3.85000	5517
3.85067	5515
3.85133	5514
3.85200	5513
3.85267	5512
3.85333	5510
3.85400	5509
3.85467	5508
3.85533	5507
3.85600	5506
3.85667	5505
3.85733	5504
3.85800	5502
3.85867	5501
3.85933	5500
3.86000	5499
3.86067	5498
3.86133	5497
3.86200	5496
3.86267	5495
3.86333	5494
3.86400	5494
3.86467	5493
3.86533	5492
3.86600	5491
3.86667	5490
3.86733	5489
3.86800	5488
3.86867	5487
3.86933	5486
3.87000	5485
3.87067	5484
3.87133	5483
3.87200	5482
3.87267	5482
3.87333	5481
3.87400	5480
3.87467	5479
3.87533	5478
3.87600	5478
3.87667	5477
3.87733	5476
3.87800	5476
3.87867	5475
3.87933	5474
3.88000	5473
3.88067	5473
3.88133	5472
3.88200	5471
3.88267	5470
3.88333	5470
3.88400	5469
3.88467	5468
3.88533	5468
3.88600	5467
3.88667	5466
3.88733	5466
3.88800	5465
3.88867	5464
3.88933	5464
3.89000	5463
3.89067	5462
3.89133	5462
3.89200	5461
3.89267	5460
3.89333	5460
3.89400	5459
3.89467	5459
3.89533	5458
3.89600	5457
3.89667	5457
3.89733	5456
3.89800	5455
3.89867	5455
3.89933	5454
3.90000	5453
3.90067	5453
3.90133	5452
3.90200	5451
3.90267	5451
3.90333	5450
3.90400	5450
3.90467	5449
3.90533	5449
3.90600	5448
3.90667	5447
3.90733	5447
3.90800	5446
3.90867	5446
3.90933	5445
3.91000	5445
3.91067	5444
3.91133	5444
3.91200	5443
3.91267	5443
3.91333	5442
3.91400	5442
3.91467	5441
3.91533	5441
3.91600	5441
3.91667	5440
3.91733	5440
3.91800	5439
3.91867	5439
3.91933	5438
3.92000	5438
3.92067	5437
3.92133	5437
3.92200	5437
3.92267	5436
3.92333	5436
3.92400	5435
3.92467	5435
3.92533	5435
3.92600	5434
3.92667	5434
3.92733	5434
3.92800	5433
3.92867	5433
3.92933	5432
3.93000	5432
3.93067	5431
3.93133	5431
3.93200	5430
3.93267	5430
3.93333	5429
3.93400	5429
3.93467	5428
3.93533	5428
3.93600	5427
3.93667	5427
3.93733	5426
3.93800	5425
3.93867	5425
3.93933	5424
3.94000	5424
3.94067	5423
3.94133	5422
3.94200	5422
3.94267	5421
3.94333	5420
3.94400	5420
3.94467	5419
3.94533	5418
3.94600	5418
3.94667	5417
3.94733	5417
3.94800	5416
3.94867	5415
3.94933	5415
3.95000	5414
3.95067	5413
3.95133	5413
3.95200	5412
3.95267	5411
3.95333	5410
3.95400	5410
3.95467	5409
3.95533	5408
3.95600	5407
3.95667	5407
3.95733	5406
3.95800	5405
3.95867	5404
3.95933	5404
3.96000	5403
3.96067	5402
3.96133	5401
3.96200	5401
3.96267	5400
3.96333	5399
3.96400	5398
3.96467	5398
3.96533	5397
3.96600	5396
3.96667	5396
3.96733	5395
3.96800	5395
3.96867	5394
3.96933	5393
3.97000	5393
3.97067	5393
3.97133	5392
3.97200	5392
3.97267	5391
3.97333	5391
3.97400	5391
3.97467	5390
3.97533	5390
3.97600	5390
3.97667	5390
3.97733	5390
3.97800	5389
3.97867	5389
3.97933	5389
3.98000	5389
3.98067	5390
3.98133	5390
3.98200	5390
3.98267	5390
3.98333	5390
3.98400	5391
3.98467	5391
3.98533	5392
3.98600	5392
3.98667	5393
3.98733	5394
3.98800	5394
3.98867	5395
3.98933	5396
3.99000	5397
3.99067	5398
3.99133	5399
3.99200	5400
3.99267	5402
3.99333	5403
3.99400	5405
3.99467	5406
3.99533	5408
3.99600	5410
3.99667	5412
3.99733	5414
3.99800	5416
3.99867	5419
3.99933	5421
4.00000	5424
4.00067	5427
4.00133	5430
4.00200	5433
4.00267	5436
4.00333	5439
4.00400	5443
4.00467	5447
4.00533	5451
4.00600	5455
4.00667	5459
4.00733	5463
4.00800	5468
4.00867	5473
4.00933	5478
4.01000	5483
4.01067	5488
4.01133	5494
4.01200	5500
4.01267	5505
4.01333	5512
4.01400	5518
4.01467	5525
4.01533	5531
4.01600	5539
4.01667	5546
4.01733	5553
4.01800	5561
4.01867	5569
4.01933	5577
4.02000	5586
4.02067	5594
4.02133	5603
4.02200	5612
4.02267	5622
4.02333	5631
4.02400	5641
4.02467	5651
4.02533	5661
4.02600	5671
4.02667	5682
4.02733	5693
4.02800	5704
4.02867	5715
4.02933	5726
4.03000	5738
4.03067	5750
4.03133	5762
4.03200	5774
4.03267	5786
4.03333	5799
4.03400	5811
4.03467	5824
4.03533	5837
4.03600	5850
4.03667	5864
4.03733	5877
4.03800	5891
4.03867	5905
4.03933	5918
4.04000	5933
4.04067	5947
4.04133	5961
4.04200	5976
4.04267	5990
4.04333	6005
4.04400	6020
4.04467	6034
4.04533	6049
4.04600	6064
4.04667	6079
4.04733	6094
4.04800	6110
4.04867	6125
4.04933	6140
4.05000	6156
4.05067	6171
4.05133	6186
4.05200	6202
4.05267	6217
4.05333	6232
4.05400	6247
4.05467	6263
4.05533	6278
4.05600	6293
4.05667	6308
4.05733	6323
4.05800	6338
4.05867	6352
4.05933	6367
4.06000	6382
4.06067	6396
4.06133	6410
4.06200	6424
4.06267	6438
4.06333	6452
4.06400	6466
4.06467	6480
4.06533	6493
4.06600	6506
4.06667	6519
4.06733	6532
4.06800	6544
4.06867	6557
4.06933	6569
4.07000	6581
4.07067	6592
4.07133	6603
4.07200	6615
4.07267	6625
4.07333	6636
4.07400	6646
4.07467	6656
4.07533	6666
4.07600	6676
4.07667	6685
4.07733	6694
4.07800	6703
4.07867	6712
4.07933	6720
4.08000	6728
4.08067	6736
4.08133	6744
4.08200	6751
4.08267	6758
4.08333	6764
4.08400	6771
4.08467	6777
4.08533	6783
4.08600	6789
4.08667	6794
4.08733	6799
4.08800	6804
4.08867	6808
4.08933	6812
4.09000	6816
4.09067	6820
4.09133	6823
4.09200	6826
4.09267	6829
4.09333	6831
4.09400	6834
4.09467	6836
4.09533	6837
4.09600	6839
4.09667	6840
4.09733	6841
4.09800	6842
4.09867	6842
4.09933	6843
4.10000	6843
4.10067	6843
4.10133	6843
4.10200	6842
4.10267	6842
4.10333	6841
4.10400	6840
4.10467	6839
4.10533	6838
4.10600	6837
4.10667	6836
4.10733	6834
4.10800	6833
4.10867	6831
4.10933	6830
4.11000	6828
4.11067	6826
4.11133	6825
4.11200	6823
4.11267	6821
4.11333	6819
4.11400	6817
4.11467	6815
4.11533	6813
4.11600	6811
4.11667	6809
4.11733	6808
4.11800	6806
4.11867	6804
4.11933	6802
4.12000	6801
4.12067	6799
4.12133	6798
4.12200	6796
4.12267	6795
4.12333	6794
4.12400	6792
4.12467	6791
4.12533	6790
4.12600	6789
4.12667	6788
4.12733	6787
4.12800	6787
4.12867	6786
4.12933	6786
4.13000	6785
4.13067	6785
4.13133	6785
4.13200	6785
4.13267	6785
4.13333	6785
4.13400	6785
4.13467	6785
4.13533	6785
4.13600	6786
4.13667	6786
4.13733	6787
4.13800	6788
4.13867	6789
4.13933	6790
4.14000	6791
4.14067	6792
4.14133	6793
4.14200	6794
4.14267	6796
4.14333	6797
4.14400	6799
4.14467	6800
4.14533	6802
4.14600	6804
4.14667	6805
4.14733	6807
4.14800	6809
4.14867	6811
4.14933	6813
4.15000	6815
4.15067	6817
4.15133	6819
4.15200	6821
4.15267	6823
4.15333	6825
4.15400	6827
4.15467	6829
4.15533	6832
4.15600	6834
4.15667	6836
4.15733	6838
4.15800	6840
4.15867	6842
4.15933	6844
4.16000	6846
4.16067	6848
4.16133	6850
4.16200	6852
4.16267	6854
4.16333	6856
4.16400	6858
4.16467	6859
4.16533	6861
4.16600	6862
4.16667	6864
4.16733	6865
4.16800	6867
4.16867	6868
4.16933	6870
4.17000	6871
4.17067	6872
4.17133	6873
4.17200	6874
4.17267	6875
4.17333	6876
4.17400	6877
4.17467	6878
4.17533	6878
4.17600	6879
4.17667	6879
4.17733	6879
4.17800	6880
4.17867	6880
4.17933	6880
4.18000	6880
4.18067	6880
4.18133	6880
4.18200	6880
4.18267	6879
4.18333	6879
4.18400	6878
4.18467	6878
4.18533	6878
4.18600	6877
4.18667	6876
4.18733	6876
4.18800	6875
4.18867	6875
4.18933	6874
4.19000	6873
4.19067	6873
4.19133	6872
4.19200	6872
4.19267	6871
4.19333	6871
4.19400	6871
4.19467	6871
4.19533	6870
4.19600	6870
4.19667	6871
4.19733	6871
4.19800	6871
4.19867	6872
4.19933	6873
4.20000	6874
4.20067	6875
4.20133	6877
4.20200	6879
4.20267	6881
4.20333	6883
4.20400	6885
4.20467	6888
4.20533	6891
4.20600	6895
4.20667	6898
4.20733	6902
4.20800	6907
4.20867	6911
4.20933	6916
4.21000	6922
4.21067	6928
4.21133	6934
4.21200	6941
4.21267	6948
4.21333	6956
4.21400	6964
4.21467	6972
4.21533	6982
4.21600	6992
4.21667	7002
4.21733	7013
4.21800	7025
4.21867	7038
4.21933	7051
4.22000	7065
4.22067	7079
4.22133	7095
4.22200	7111
4.22267	7128
4.22333	7145
4.22400	7164
4.22467	7183
4.22533	7204
4.22600	7225
4.22667	7247
4.22733	7270
4.22800	7294
4.22867	7318
4.22933	7344
4.23000	7371
4.23067	7399
4.23133	7428
4.23200	7458
4.23267	7489
4.23333	7521
4.23400	7555
4.23467	7589
4.23533	7625
4.23600	7663
4.23667	7701
4.23733	7741
4.23800	7783
4.23867	7825
4.23933	7870
4.24000	7915
4.24067	7963
4.24133	8011
4.24200	8062
4.24267	8114
4.24333	8168
4.24400	8223
4.24467	8281
4.24533	8340
4.24600	8401
4.24667	8464
4.24733	8530
4.24800	8597
4.24867	8666
4.24933	8738
4.25000	8812
4.25067	8888
4.25133	8967
4.25200	9048
4.25267	9132
4.25333	9218
4.25400	9307
4.25467	9399
4.25533	9494
4.25600	9592
4.25667	9692
4.25733	9796
4.25800	9903
4.25867	10014
4.25933	10127
4.26000	10245
4.26067	10366
4.26133	10491
4.26200	10620
4.26267	10752
4.26333	10889
4.26400	11030
4.26467	11175
4.26533	11324
4.26600	11478
4.26667	11636
4.26733	11799
4.26800	11967
4.26867	12139
4.26933	12317
4.27000	12500
4.27067	12687
4.27133	12881
4.27200	13079
4.27267	13283
4.27333	13493
4.27400	13708
4.27467	13930
4.27533	14157
4.27600	14391
4.27667	14631
4.27733	14877
4.27800	15130
4.27867	15389
4.27933	15656
4.28000	15929
4.28067	16210
4.28133	16497
4.28200	16793
4.28267	17095
4.28333	17406
4.28400	17724
4.28467	18050
4.28533	18384
4.28600	18726
4.28667	19077
4.28733	19437
4.28800	19805
4.28867	20182
4.28933	20568
4.29000	20963
4.29067	21367
4.29133	21780
4.29200	22202
4.29267	22635
4.29333	23076
4.29400	23528
4.29467	23989
4.29533	24461
4.29600	24942
4.29667	25432
4.29733	25933
4.29800	26442
4.29867	26962
4.29933	27490
4.30000	28028
4.30067	28576
4.30133	29132
4.30200	29698
4.30267	30272
4.30333	30856
4.30400	31448
4.30467	32049
4.30533	32659
4.30600	33278
4.30667	33905
4.30733	34540
4.30800	35184
4.30867	35835
4.30933	36495
4.31000	37162
4.31067	37837
4.31133	38519
4.31200	39208
4.31267	39903
4.31333	40605
4.31400	41314
4.31467	42027
4.31533	42747
4.31600	43471
4.31667	44200
4.31733	44933
4.31800	45670
4.31867	46411
4.31933	47155
4.32000	47902
4.32067	48652
4.32133	49404
4.32200	50158
4.32267	50913
4.32333	51670
4.32400	52427
4.32467	53184
4.32533	53940
4.32600	54696
4.32667	55450
4.32733	56203
4.32800	56953
4.32867	57701
4.32933	58446
4.33000	59189
4.33067	59928
4.33133	60664
4.33200	61395
4.33267	62122
4.33333	62844
4.33400	63561
4.33467	64271
4.33533	64975
4.33600	65672
4.33667	66361
4.33733	67042
4.33800	67713
4.33867	68376
4.33933	69029
4.34000	69671
4.34067	70302
4.34133	70922
4.34200	71530
4.34267	72126
4.34333	72709
4.34400	73279
4.34467	73836
4.34533	74380
4.34600	74910
4.34667	75426
4.34733	75927
4.34800	76414
4.34867	76886
4.34933	77342
4.35000	77783
4.35067	78208
4.35133	78617
4.35200	79010
4.35267	79385
4.35333	79744
4.35400	80086
4.35467	80411
4.35533	80718
4.35600	81007
4.35667	81279
4.35733	81533
4.35800	81769
4.35867	81988
4.35933	82189
4.36000	82372
4.36067	82538
4.36133	82687
4.36200	82820
4.36267	82936
4.36333	83036
4.36400	83120
4.36467	83189
4.36533	83243
4.36600	83282
4.36667	83305
4.36733	83314
4.36800	83309
4.36867	83290
4.36933	83257
4.37000	83210
4.37067	83149
4.37133	83075
4.37200	82988
4.37267	82887
4.37333	82774
4.37400	82648
4.37467	82510
4.37533	82360
4.37600	82198
4.37667	82025
4.37733	81841
4.37800	81647
4.37867	81443
4.37933	81230
4.38000	81008
4.38067	80778
4.38133	80541
4.38200	80296
4.38267	80045
4.38333	79787
4.38400	79523
4.38467	79254
4.38533	78980
4.38600	78702
4.38667	78419
4.38733	78133
4.38800	77844
4.38867	77551
4.38933	77256
4.39000	76959
4.39067	76660
4.39133	76360
4.39200	76059
4.39267	75757
4.39333	75455
4.39400	75153
4.39467	74852
4.39533	74552
4.39600	74253
4.39667	73955
4.39733	73660
4.39800	73366
4.39867	73075
4.39933	72786
4.40000	72499
4.40067	72215
4.40133	71934
4.40200	71655
4.40267	71380
4.40333	71107
4.40400	70838
4.40467	70573
4.40533	70311
4.40600	70053
4.40667	69798
4.40733	69548
4.40800	69302
4.40867	69060
4.40933	68822
4.41000	68589
4.41067	68360
4.41133	68136
4.41200	67916
4.41267	67700
4.41333	67490
4.41400	67284
4.41467	67083
4.41533	66887
4.41600	66696
4.41667	66509
4.41733	66327
4.41800	66150
4.41867	65977
4.41933	65809
4.42000	65645
4.42067	65484
4.42133	65328
4.42200	65176
4.42267	65028
4.42333	64883
4.42400	64742
4.42467	64604
4.42533	64469
4.42600	64338
4.42667	64210
4.42733	64085
4.42800	63963
4.42867	63844
4.42933	63727
4.43000	63613
4.43067	63502
4.43133	63393
4.43200	63286
4.43267	63181
4.43333	63078
4.43400	62977
4.43467	62877
4.43533	62779
4.43600	62682
4.43667	62586
4.43733	62491
4.43800	62396
4.43867	62302
4.43933	62208
4.44000	62113
4.44067	62019
4.44133	61923
4.44200	61827
4.44267	61729
4.44333	61630
4.44400	61529
4.44467	61426
4.44533	61321
4.44600	61214
4.44667	61105
4.44733	60992
4.44800	60877
4.44867	60758
4.44933	60637
4.45000	60512
4.45067	60384
4.45133	60252
4.45200	60117
4.45267	59979
4.45333	59837
4.45400	59691
4.45467	59541
4.45533	59387
4.45600	59230
4.45667	59068
4.45733	58902
4.45800	58731
4.45867	58556
4.45933	58377
4.46000	58193
4.46067	58004
4.46133	57810
4.46200	57612
4.46267	57408
4.46333	57199
4.46400	56986
4.46467	56767
4.46533	56543
4.46600	56315
4.46667	56081
4.46733	55843
4.46800	55601
4.46867	55354
4.46933	55103
4.47000	54847
4.47067	54587
4.47133	54323
4.47200	54055
4.47267	53782
4.47333	53506
4.47400	53226
4.47467	52943
4.47533	52655
4.47600	52364
4.47667	52070
4.47733	51772
4.47800	51471
4.47867	51166
4.47933	50858
4.48000	50547
4.48067	50232
4.48133	49915
4.48200	49594
4.48267	49270
4.48333	48943
4.48400	48614
4.48467	48282
4.48533	47947
4.48600	47610
4.48667	47270
4.48733	46929
4.48800	46585
4.48867	46240
4.48933	45892
4.49000	45543
4.49067	45192
4.49133	44840
4.49200	44486
4.49267	44132
4.49333	43776
4.49400	43419
4.49467	43061
4.49533	42702
4.49600	42342
4.49667	41983
4.49733	41622
4.49800	41261
4.49867	40901
4.49933	40540
4.50000	40179
4.50067	39818
4.50133	39458
4.50200	39099
4.50267	38740
4.50333	38381
4.50400	38024
4.50467	37668
4.50533	37312
4.50600	36958
4.50667	36606
4.50733	36255
4.50800	35905
4.50867	35557
4.50933	35211
4.51000	34867
4.51067	34525
4.51133	34185
4.51200	33847
4.51267	33512
4.51333	33179
4.51400	32848
4.51467	32519
4.51533	32194
4.51600	31870
4.51667	31550
4.51733	31232
4.51800	30917
4.51867	30605
4.51933	30295
4.52000	29989
4.52067	29686
4.52133	29385
4.52200	29088
4.52267	28794
4.52333	28503
4.52400	28215
4.52467	27931
4.52533	27649
4.52600	27371
4.52667	27096
4.52733	26825
4.52800	26557
4.52867	26293
4.52933	26031
4.53000	25774
4.53067	25520
4.53133	25269
4.53200	25021
4.53267	24777
4.53333	24537
4.53400	24299
4.53467	24066
4.53533	23835
4.53600	23608
4.53667	23384
4.53733	23163
4.53800	22946
4.53867	22732
4.53933	22521
4.54000	22313
4.54067	22109
4.54133	21907
4.54200	21709
4.54267	21514
4.54333	21322
4.54400	21133
4.54467	20948
4.54533	20765
4.54600	20586
4.54667	20410
4.54733	20237
4.54800	20067
4.54867	19900
4.54933	19735
4.55000	19574
4.55067	19416
4.55133	19260
4.55200	19107
4.55267	18957
4.55333	18810
4.55400	18665
4.55467	18523
4.55533	18384
4.55600	18247
4.55667	18113
4.55733	17981
4.55800	17852
4.55867	17725
4.55933	17600
4.56000	17478
4.56067	17359
4.56133	17241
4.56200	17126
4.56267	17014
4.56333	16903
4.56400	16795
4.56467	16688
4.56533	16584
4.56600	16482
4.56667	16382
4.56733	16284
4.56800	16188
4.56867	16094
4.56933	16002
4.57000	15911
4.57067	15822
4.57133	15735
4.57200	15650
4.57267	15567
4.57333	15484
4.57400	15404
4.57467	15325
4.57533	15247
4.57600	15171
4.57667	15097
4.57733	15023
4.57800	14952
4.57867	14881
4.57933	14812
4.58000	14744
4.58067	14677
4.58133	14612
4.58200	14547
4.58267	14484
4.58333	14422
4.58400	14362
4.58467	14302
4.58533	14244
4.58600	14187
4.58667	14131
4.58733	14076
4.58800	14022
4.58867	13969
4.58933	13917
4.59000	13866
4.59067	13816
4.59133	13768
4.59200	13720
4.59267	13673
4.59333	13626
4.59400	13581
4.59467	13537
4.59533	13493
4.59600	13450
4.59667	13407
4.59733	13366
4.59800	13325
4.59867	13284
4.59933	13244
4.60000	13205
4.60067	13167
4.60133	13129
4.60200	13091
4.60267	13055
4.60333	13019
4.60400	12983
4.60467	12948
4.60533	12914
4.60600	12880
4.60667	12847
4.60733	12814
4.60800	12782
4.60867	12750
4.60933	12718
4.61000	12687
4.61067	12657
4.61133	12627
4.61200	12597
4.61267	12568
4.61333	12539
4.61400	12511
4.61467	12483
4.61533	12455
4.61600	12428
4.61667	12401
4.61733	12374
4.61800	12347
4.61867	12321
4.61933	12295
4.62000	12270
4.62067	12245
4.62133	12220
4.62200	12196
4.62267	12172
4.62333	12148
4.62400	12124
4.62467	12101
4.62533	12078
4.62600	12055
4.62667	12032
4.62733	12010
4.62800	11988
4.62867	11967
4.62933	11946
4.63000	11925
4.63067	11904
4.63133	11884
4.63200	11864
4.63267	11844
4.63333	11824
4.63400	11805
4.63467	11786
4.63533	11767
4.63600	11749
4.63667	11730
4.63733	11712
4.63800	11694
4.63867	11677
4.63933	11659
4.64000	11642
4.64067	11625
4.64133	11608
4.64200	11592
4.64267	11575
4.64333	11559
4.64400	11543
4.64467	11527
4.64533	11511
4.64600	11495
4.64667	11480
4.64733	11465
4.64800	11449
4.64867	11434
4.64933	11419
4.65000	11405
4.65067	11390
4.65133	11376
4.65200	11361
4.65267	11347
4.65333	11333
4.65400	11319
4.65467	11305
4.65533	11291
4.65600	11277
4.65667	11263
4.65733	11250
4.65800	11236
4.65867	11222
4.65933	11209
4.66000	11196
4.66067	11182
4.66133	11169
4.66200	11156
4.66267	11143
4.66333	11130
4.66400	11117
4.66467	11104
4.66533	11092
4.66600	11079
4.66667	11066
4.66733	11054
4.66800	11041
4.66867	11029
4.66933	11017
4.67000	11005
4.67067	10992
4.67133	10980
4.67200	10968
4.67267	10956
4.67333	10945
4.67400	10933
4.67467	10921
4.67533	10909
4.67600	10898
4.67667	10886
4.67733	10875
4.67800	10863
4.67867	10852
4.67933	10840
4.68000	10829
4.68067	10818
4.68133	10807
4.68200	10796
4.68267	10785
4.68333	10774
4.68400	10764
4.68467	10753
4.68533	10742
4.68600	10731
4.68667	10721
4.68733	10710
4.68800	10699
4.68867	10688
4.68933	10678
4.69000	10667
4.69067	10656
4.69133	10645
4.69200	10635
4.69267	10624
4.69333	10613
4.69400	10602
4.69467	10592
4.69533	10581
4.69600	10570
4.69667	10560
4.69733	10549
4.69800	10538
4.69867	10528
4.69933	10517
4.70000	10506
4.70067	10495
4.70133	10485
4.70200	10474
4.70267	10463
4.70333	10452
4.70400	10442
4.70467	10431
4.70533	10420
4.70600	10409
4.70667	10399
4.70733	10388
4.70800	10377
4.70867	10366
4.70933	10356
4.71000	10345
4.71067	10334
4.71133	10323
4.71200	10312
4.71267	10301
4.71333	10290
4.71400	10279
4.71467	10268
4.71533	10257
4.71600	10246
4.71667	10235
4.71733	10224
4.71800	10213
4.71867	10202
4.71933	10191
4.72000	10180
4.72067	10169
4.72133	10158
4.72200	10147
4.72267	10136
4.72333	10125
4.72400	10114
4.72467	10104
4.72533	10093
4.72600	10082
4.72667	10071
4.72733	10061
4.72800	10050
4.72867	10040
4.72933	10029
4.73000	10019
4.73067	10008
4.73133	9998
4.73200	9987
4.73267	9977
4.73333	9967
4.73400	9957
4.73467	9947
4.73533	9937
4.73600	9926
4.73667	9916
4.73733	9907
4.73800	9897
4.73867	9887
4.73933	9877
4.74000	9868
4.74067	9858
4.74133	9849
4.74200	9840
4.74267	9831
4.74333	9821
4.74400	9812
4.74467	9803
4.74533	9794
4.74600	9786
4.74667	9777
4.74733	9768
4.74800	9759
4.74867	9750
4.74933	9742
4.75000	9733
4.75067	9725
4.75133	9716
4.75200	9708
4.75267	9699
4.75333	9691
4.75400	9683
4.75467	9674
4.75533	9666
4.75600	9658
4.75667	9650
4.75733	9642
4.75800	9634
4.75867	9626
4.75933	9618
4.76000	9610
4.76067	9602
4.76133	9594
4.76200	9587
4.76267	9579
4.76333	9571
4.76400	9563
4.76467	9555
4.76533	9548
4.76600	9540
4.76667	9532
4.76733	9525
4.76800	9517
4.76867	9510
4.76933	9502
4.77000	9495
4.77067	9487
4.77133	9480
4.77200	9472
4.77267	9465
4.77333	9458
4.77400	9450
4.77467	9443
4.77533	9435
4.77600	9428
4.77667	9421
4.77733	9413
4.77800	9406
4.77867	9398
4.77933	9391
4.78000	9384
4.78067	9376
4.78133	9369
4.78200	9361
4.78267	9354
4.78333	9347
4.78400	9339
4.78467	9332
4.78533	9325
4.78600	9317
4.78667	9310
4.78733	9303
4.78800	9296
4.78867	9288
4.78933	9281
4.79000	9274
4.79067	9267
4.79133	9260
4.79200	9253
4.79267	9246
4.79333	9239
4.79400	9232
4.79467	9225
4.79533	9218
4.79600	9211
4.79667	9204
4.79733	9198
4.79800	9191
4.79867	9184
4.79933	9178
4.80000	9171
4.80067	9165
4.80133	9159
4.80200	9152
4.80267	9146
4.80333	9140
4.80400	9133
4.80467	9127
4.80533	9121
4.80600	9115
4.80667	9109
4.80733	9103
4.80800	9097
4.80867	9090
4.80933	9084
4.81000	9079
4.81067	9073
4.81133	9067
4.81200	9061
4.81267	9055
4.81333	9049
4.81400	9044
4.81467	9038
4.81533	9032
4.81600	9027
4.81667	9021
4.81733	9016
4.81800	9010
4.81867	9005
4.81933	9000
4.82000	8995
4.82067	8989
4.82133	8984
4.82200	8979
4.82267	8974
4.82333	8969
4.82400	8964
4.82467	8959
4.82533	8954
4.82600	8949
4.82667	8944
4.82733	8939
4.82800	8934
4.82867	8930
4.82933	8925
4.83000	8920
4.83067	8916
4.83133	8911
4.83200	8907
4.83267	8902
4.83333	8898
4.83400	8894
4.83467	8890
4.83533	8885
4.83600	8881
4.83667	8877
4.83733	8873
4.83800	8868
4.83867	8864
4.83933	8860
4.84000	8855
4.84067	8851
4.84133	8847
4.84200	8843
4.84267	8839
4.84333	8834
4.84400	8830
4.84467	8826
4.84533	8822
4.84600	8818
4.84667	8814
4.84733	8810
4.84800	8805
4.84867	8801
4.84933	8797
4.85000	8793
4.85067	8789
4.85133	8785
4.85200	8781
4.85267	8777
4.85333	8773
4.85400	8769
4.85467	8765
4.85533	8761
4.85600	8757
4.85667	8753
4.85733	8748
4.85800	8744
4.85867	8740
4.85933	8736
4.86000	8732
4.86067	8728
4.86133	8724
4.86200	8720
4.86267	8716
4.86333	8712
4.86400	8708
4.86467	8704
4.86533	8700
4.86600	8696
4.86667	8692
4.86733	8688
4.86800	8684
4.86867	8679
4.86933	8675
4.87000	8671
4.87067	8667
4.87133	8663
4.87200	8659
4.87267	8655
4.87333	8651
4.87400	8647
4.87467	8642
4.87533	8638
4.87600	8634
4.87667	8630
4.87733	8626
4.87800	8622
4.87867	8618
4.87933	8613
4.88000	8609
4.88067	8605
4.88133	8601
4.88200	8597
4.88267	8592
4.88333	8588
4.88400	8584
4.88467	8580
4.88533	8575
4.88600	8571
4.88667	8567
4.88733	8563
4.88800	8559
4.88867	8555
4.88933	8551
4.89000	8547
4.89067	8543
4.89133	8539
4.89200	8535
4.89267	8531
4.89333	8527
4.89400	8523
4.89467	8519
4.89533	8515
4.89600	8511
4.89667	8507
4.89733	8503
4.89800	8499
4.89867	8495
4.89933	8492
4.90000	8488
4.90067	8484
4.90133	8480
4.90200	8477
4.90267	8473
4.90333	8469
4.90400	8466
4.90467	8462
4.90533	8459
4.90600	8455
4.90667	8451
4.90733	8448
4.90800	8444
4.90867	8441
4.90933	8437
4.91000	8434
4.91067	8430
4.91133	8427
4.91200	8423
4.91267	8420
4.91333	8416
4.91400	8413
4.91467	8409
4.91533	8406
4.91600	8403
4.91667	8399
4.91733	8396
4.91800	8393
4.91867	8389
4.91933	8386
4.92000	8383
4.92067	8380
4.92133	8377
4.92200	8373
4.92267	8370
4.92333	8367
4.92400	8364
4.92467	8361
4.92533	8358
4.92600	8355
4.92667	8352
4.92733	8349
4.92800	8345
4.92867	8342
4.92933	8339
4.93000	8336
4.93067	8333
4.93133	8330
4.93200	8327
4.93267	8324
4.93333	8321
4.93400	8318
4.93467	8314
4.93533	8311
4.93600	8308
4.93667	8305
4.93733	8301
4.93800	8298
4.93867	8295
4.93933	8292
4.94000	8289
4.94067	8286
4.94133	8282
4.94200	8279
4.94267	8276
4.94333	8273
4.94400	8270
4.94467	8267
4.94533	8264
4.94600	8261
4.94667	8257
4.94733	8254
4.94800	8251
4.94867	8248
4.94933	8245
4.95000	8242
4.95067	8239
4.95133	8236
4.95200	8233
4.95267	8230
4.95333	8227
4.95400	8224
4.95467	8222
4.95533	8219
4.95600	8216
4.95667	8213
4.95733	8210
4.95800	8207
4.95867	8205
4.95933	8202
4.96000	8199
4.96067	8196
4.96133	8193
4.96200	8191
4.96267	8188
4.96333	8185
4.96400	8182
4.96467	8179
4.96533	8176
4.96600	8174
4.96667	8171
4.96733	8168
4.96800	8165
4.96867	8162
4.96933	8160
4.97000	8157
4.97067	8154
4.97133	8151
4.97200	8149
4.97267	8146
4.97333	8143
4.97400	8141
4.97467	8138
4.97533	8135
4.97600	8133
4.97667	8130
4.97733	8128
4.97800	8125
4.97867	8123
4.97933	8121
4.98000	8118
4.98067	8116
4.98133	8114
4.98200	8111
4.98267	8109
4.98333	8107
4.98400	8105
4.98467	8102
4.98533	8100
4.98600	8098
4.98667	8096
4.98733	8094
4.98800	8091
4.98867	8089
4.98933	8087
4.99000	8085
4.99067	8083
4.99133	8081
4.99200	8079
4.99267	8077
4.99333	8075
4.99400	8073
4.99467	8071
4.99533	8069
4.99600	8067
4.99667	8065
4.99733	8063
4.99800	8060
4.99867	8058
4.99933	8056
5.00000	8054
5.00067	8052
5.00133	8050
5.00200	8048
5.00267	8046
5.00333	8045
5.00400	8043
5.00467	8041
5.00533	8039
5.00600	8037
5.00667	8035
5.00733	8033
5.00800	8031
5.00867	8029
5.00933	8028
5.01000	8026
5.01067	8024
5.01133	8022
5.01200	8021
5.01267	8019
5.01333	8017
5.01400	8016
5.01467	8014
5.01533	8012
5.01600	8011
5.01667	8009
5.01733	8007
5.01800	8005
5.01867	8004
5.01933	8002
5.02000	8000
5.02067	7998
5.02133	7997
5.02200	7995
5.02267	7993
5.02333	7991
5.02400	7989
5.02467	7988
5.02533	7986
5.02600	7984
5.02667	7983
5.02733	7981
5.02800	7979
5.02867	7977
5.02933	7976
5.03000	7974
5.03067	7972
5.03133	7970
5.03200	7969
5.03267	7967
5.03333	7965
5.03400	7963
5.03467	7962
5.03533	7960
5.03600	7958
5.03667	7956
5.03733	7955
5.03800	7953
5.03867	7951
5.03933	7949
5.04000	7948
5.04067	7946
5.04133	7944
5.04200	7942
5.04267	7941
5.04333	7939
5.04400	7937
5.04467	7935
5.04533	7933
5.04600	7931
5.04667	7930
5.04733	7928
5.04800	7926
5.04867	7924
5.04933	7921
5.05000	7919
5.05067	7917
5.05133	7915
5.05200	7913
5.05267	7911
5.05333	7909
5.05400	7907
5.05467	7905
5.05533	7903
5.05600	7901
5.05667	7899
5.05733	7897
5.05800	7895
5.05867	7893
5.05933	7891
5.06000	7888
5.06067	7886
5.06133	7884
5.06200	7882
5.06267	7880
5.06333	7878
5.06400	7875
5.06467	7873
5.06533	7871
5.06600	7869
5.06667	7866
5.06733	7864
5.06800	7862
5.06867	7860
5.06933	7858
5.07000	7855
5.07067	7853
5.07133	7851
5.07200	7849
5.07267	7847
5.07333	7845
5.07400	7843
5.07467	7841
5.07533	7839
5.07600	7837
5.07667	7835
5.07733	7833
5.07800	7832
5.07867	7830
5.07933	7828
5.08000	7826
5.08067	7824
5.08133	7822
5.08200	7820
5.08267	7818
5.08333	7816
5.08400	7814
5.08467	7812
5.08533	7810
5.08600	7809
5.08667	7807
5.08733	7805
5.08800	7803
5.08867	7802
5.08933	7800
5.09000	7798
5.09067	7796
5.09133	7794
5.09200	7793
5.09267	7791
5.09333	7789
5.09400	7787
5.09467	7786
5.09533	7784
5.09600	7782
5.09667	7781
5.09733	7779
5.09800	7777
5.09867	7775
5.09933	7774
5.10000	7772
5.10067	7770
5.10133	7769
5.10200	7767
5.10267	7765
5.10333	7763
5.10400	7762
5.10467	7760
5.10533	7758
5.10600	7756
5.10667	7755
5.10733	7753
5.10800	7751
5.10867	7750
5.10933	7748
5.11000	7746
5.11067	7745
5.11133	7743
5.11200	7741
5.11267	7740
5.11333	7738
5.11400	7736
5.11467	7734
5.11533	7733
5.11600	7731
5.11667	7729
5.11733	7727
5.11800	7726
5.11867	7724
5.11933	7722
5.12000	7720
5.12067	7718
5.12133	7716
5.12200	7714
5.12267	7712
5.12333	7710
5.12400	7708
5.12467	7706
5.12533	7704
5.12600	7702
5.12667	7700
5.12733	7698
5.12800	7695
5.12867	7693
5.12933	7691
5.13000	7689
5.13067	7686
5.13133	7684
5.13200	7682
5.13267	7679
5.13333	7677
5.13400	7674
5.13467	7672
5.13533	7669
5.13600	7667
5.13667	7664
5.13733	7662
5.13800	7659
5.13867	7656
5.13933	7654
5.14000	7651
5.14067	7648
5.14133	7646
5.14200	7643
5.14267	7640
5.14333	7638
5.14400	7635
5.14467	7633
5.14533	7630
5.14600	7627
5.14667	7625
5.14733	7622
5.14800	7620
5.14867	7617
5.14933	7615
5.15000	7612
5.15067	7610
5.15133	7607
5.15200	7605
5.15267	7603
5.15333	7600
5.15400	7598
5.15467	7596
5.15533	7594
5.15600	7592
5.15667	7590
5.15733	7588
5.15800	7586
5.15867	7584
5.15933	7582
5.16000	7580
5.16067	7578
5.16133	7576
5.16200	7574
5.16267	7572
5.16333	7570
5.16400	7568
5.16467	7566
5.16533	7565
5.16600	7563
5.16667	7561
5.16733	7559
5.16800	7558
5.16867	7556
5.16933	7554
5.17000	7553
5.17067	7551
5.17133	7549
5.17200	7548
5.17267	7546
5.17333	7545
5.17400	7543
5.17467	7542
5.17533	7540
5.17600	7539
5.17667	7538
5.17733	7536
5.17800	7535
5.17867	7534
5.17933	7533
5.18000	7532
5.18067	7530
5.18133	7529
5.18200	7528
5.18267	7527
5.18333	7526
5.18400	7525
5.18467	7524
5.18533	7523
5.18600	7522
5.18667	7520
5.18733	7519
5.18800	7518
5.18867	7517
5.18933	7516
5.19000	7515
5.19067	7514
5.19133	7513
5.19200	7511
5.19267	7510
5.19333	7509
5.19400	7508
5.19467	7507
5.19533	7505
5.19600	7504
5.19667	7503
5.19733	7501
5.19800	7500
5.19867	7498
5.19933	7496
5.20000	7495
5.20067	7493
5.20133	7491
5.20200	7489
5.20267	7487
5.20333	7485
5.20400	7483
5.20467	7481
5.20533	7479
5.20600	7477
5.20667	7475
5.20733	7472
5.20800	7470
5.20867	7468
5.20933	7466
5.21000	7463
5.21067	7461
5.21133	7459
5.21200	7456
5.21267	7454
5.21333	7451
5.21400	7448
5.21467	7446
5.21533	7443
5.21600	7441
5.21667	7438
5.21733	7435
5.21800	7432
5.21867	7430
5.21933	7427
5.22000	7424
5.22067	7421
5.22133	7419
5.22200	7416
5.22267	7413
5.22333	7410
5.22400	7407
5.22467	7404
5.22533	7402
5.22600	7399
5.22667	7396
5.22733	7393
5.22800	7390
5.22867	7387
5.22933	7384
5.23000	7381
5.23067	7378
5.23133	7375
5.23200	7372
5.23267	7370
5.23333	7367
5.23400	7364
5.23467	7361
5.23533	7358
5.23600	7355
5.23667	7353
5.23733	7350
5.23800	7347
5.23867	7344
5.23933	7342
5.24000	7339
5.24067	7336
5.24133	7334
5.24200	7331
5.24267	7328
5.24333	7326
5.24400	7323
5.24467	7321
5.24533	7318
5.24600	7315
5.24667	7313
5.24733	7310
5.24800	7308
5.24867	7305
5.24933	7303
5.25000	7300
5.25067	7297
5.25133	7295
5.25200	7292
5.25267	7290
5.25333	7287
5.25400	7285
5.25467	7282
5.25533	7280
5.25600	7277
5.25667	7275
5.25733	7273
5.25800	7270
5.25867	7268
5.25933	7266
5.26000	7263
5.26067	7261
5.26133	7259
5.26200	7257
5.26267	7254
5.26333	7252
5.26400	7250
5.26467	7247
5.26533	7245
5.26600	7242
5.26667	7240
5.26733	7237
5.26800	7235
5.26867	7232
5.26933	7230
5.27000	7227
5.27067	7225
5.27133	7222
5.27200	7220
5.27267	7218
5.27333	7215
5.27400	7213
5.27467	7210
5.27533	7208
5.27600	7205
5.27667	7203
5.27733	7200
5.27800	7198
5.27867	7195
5.27933	7193
5.28000	7190
5.28067	7188
5.28133	7185
5.28200	7183
5.28267	7180
5.28333	7177
5.28400	7175
5.28467	7172
5.28533	7169
5.28600	7167
5.28667	7164
5.28733	7161
5.28800	7158
5.28867	7156
5.28933	7153
5.29000	7150
5.29067	7147
5.29133	7145
5.29200	7142
5.29267	7139
5.29333	7136
5.29400	7133
5.29467	7131
5.29533	7128
5.29600	7125
5.29667	7123
5.29733	7120
5.29800	7117
5.29867	7115
5.29933	7112
5.30000	7110
5.30067	7107
5.30133	7105
5.30200	7103
5.30267	7100
5.30333	7098
5.30400	7095
5.30467	7093
5.30533	7091
5.30600	7088
5.30667	7086
5.30733	7084
5.30800	7081
5.30867	7079
5.30933	7077
5.31000	7074
5.31067	7072
5.31133	7070
5.31200	7067
5.31267	7065
5.31333	7063
5.31400	7060
5.31467	7058
5.31533	7056
5.31600	7054
5.31667	7051
5.31733	7049
5.31800	7047
5.31867	7045
5.31933	7043
5.32000	7041
5.32067	7039
5.32133	7037
5.32200	7035
5.32267	7033
5.32333	7031
5.32400	7029
5.32467	7027
5.32533	7025
5.32600	7023
5.32667	7021
5.32733	7019
5.32800	7018
5.32867	7016
5.32933	7014
5.33000	7012
5.33067	7010
5.33133	7009
5.33200	7007
5.33267	7005
5.33333	7003
5.33400	7001
5.33467	7000
5.33533	6998
5.33600	6996
5.33667	6994
5.33733	6993
5.33800	6991
5.33867	6989
5.33933	6987
5.34000	6985
5.34067	6984
5.34133	6982
5.34200	6980
5.34267	6978
5.34333	6976
5.34400	6975
5.34467	6973
5.34533	6971
5.34600	6969
5.34667	6967
5.34733	6965
5.34800	6964
5.34867	6962
5.34933	6960
5.35000	6958
5.35067	6956
5.35133	6954
5.35200	6952
5.35267	6950
5.35333	6949
5.35400	6947
5.35467	6945
5.35533	6943
5.35600	6941
5.35667	6939
5.35733	6937
5.35800	6935
5.35867	6932
5.35933	6930
5.36000	6928
5.36067	6926
5.36133	6924
5.36200	6922
5.36267	6920
5.36333	6918
5.36400	6915
5.36467	6913
5.36533	6911
5.36600	6909
5.36667	6907
5.36733	6905
5.36800	6903
5.36867	6901
5.36933	6899
5.37000	6896
5.37067	6894
5.37133	6892
5.37200	6890
5.37267	6888
5.37333	6886
5.37400	6884
5.37467	6882
5.37533	6880
5.37600	6878
5.37667	6875
5.37733	6873
5.37800	6871
5.37867	6869
5.37933	6867
5.38000	6866
5.38067	6864
5.38133	6862
5.38200	6860
5.38267	6858
5.38333	6856
5.38400	6854
5.38467	6853
5.38533	6851
5.38600	6849
5.38667	6847
5.38733	6846
5.38800	6844
5.38867	6843
5.38933	6841
5.39000	6839
5.39067	6838
5.39133	6836
5.39200	6835
5.39267	6833
5.39333	6832
5.39400	6830
5.39467	6829
5.39533	6827
5.39600	6826
5.39667	6824
5.39733	6823
5.39800	6822
5.39867	6820
5.39933	6819
5.40000	6818
5.40067	6816
5.40133	6815
5.40200	6813
5.40267	6812
5.40333	6810
5.40400	6809
5.40467	6808
5.40533	6806
5.40600	6805
5.40667	6803
5.40733	6802
5.40800	6800
5.40867	6799
5.40933	6797
5.41000	6796
5.41067	6794
5.41133	6793
5.41200	6791
5.41267	6790
5.41333	6788
5.41400	6786
5.41467	6785
5.41533	6783
5.41600	6782
5.41667	6780
5.41733	6778
5.41800	6777
5.41867	6775
5.41933	6774
5.42000	6772
5.42067	6770
5.42133	6769
5.42200	6767
5.42267	6766
5.42333	6764
5.42400	6762
5.42467	6761
5.42533	6759
5.42600	6758
5.42667	6756
5.42733	6755
5.42800	6753
5.42867	6751
5.42933	6750
5.43000	6748
5.43067	6747
5.43133	6745
5.43200	6743
5.43267	6742
5.43333	6740
5.43400	6739
5.43467	6737
5.43533	6735
5.43600	6734
5.43667	6732
5.43733	6730
5.43800	6729
5.43867	6727
5.43933	6726
5.44000	6724
5.44067	6722
5.44133	6721
5.44200	6719
5.44267	6717
5.44333	6716
5.44400	6714
5.44467	6712
5.44533	6711
5.44600	6709
5.44667	6708
5.44733	6706
5.44800	6705
5.44867	6703
5.44933	6702
5.45000	6700
5.45067	6699
5.45133	6697
5.45200	6696
5.45267	6694
5.45333	6693
5.45400	6691
5.45467	6690
5.45533	6689
5.45600	6687
5.45667	6686
5.45733	6685
5.45800	6683
5.45867	6682
5.45933	6681
5.46000	6679
5.46067	6678
5.46133	6677
5.46200	6675
5.46267	6674
5.46333	6673
5.46400	6672
5.46467	6670
5.46533	6669
5.46600	6668
5.46667	6666
5.46733	6665
5.46800	6664
5.46867	6662
5.46933	6661
5.47000	6659
5.47067	6658
5.47133	6657
5.47200	6655
5.47267	6654
5.47333	6652
5.47400	6651
5.47467	6650
5.47533	6648
5.47600	6647
5.47667	6645
5.47733	6644
5.47800	6643
5.47867	6641
5.47933	6640
5.48000	6639
5.48067	6637
5.48133	6636
5.48200	6635
5.48267	6633
5.48333	6632
5.48400	6631
5.48467	6630
5.48533	6628
5.48600	6627
5.48667	6626
5.48733	6625
5.48800	6623
5.48867	6622
5.48933	6621
5.49000	6620
5.49067	6618
5.49133	6617
5.49200	6616
5.49267	6615
5.49333	6613
5.49400	6612
5.49467	6611
5.49533	6610
5.49600	6609
5.49667	6607
5.49733	6606
5.49800	6605
5.49867	6604
5.49933	6603
5.50000	6602
5.50067	6600
5.50133	6599
5.50200	6598
5.50267	6597
5.50333	6596
5.50400	6595
5.50467	6594
5.50533	6593
5.50600	6592
5.50667	6591
5.50733	6590
5.50800	6589
5.50867	6588
5.50933	6587
5.51000	6586
5.51067	6585
5.51133	6584
5.51200	6583
5.51267	6582
5.51333	6581
5.51400	6580
5.51467	6579
5.51533	6578
5.51600	6578
5.51667	6577
5.51733	6576
5.51800	6575
5.51867	6574
5.51933	6573
5.52000	6573
5.52067	6572
5.52133	6571
5.52200	6570
5.52267	6569
5.52333	6568
5.52400	6567
5.52467	6566
5.52533	6565
5.52600	6564
5.52667	6563
5.52733	6562
5.52800	6561
5.52867	6561
5.52933	6560
5.53000	6559
5.53067	6558
5.53133	6557
5.53200	6556
5.53267	6555
5.53333	6554
5.53400	6553
5.53467	6552
5.53533	6551
5.53600	6550
5.53667	6549
5.53733	6548
5.53800	6547
5.53867	6546
5.53933	6545
5.54000	6544
5.54067	6543
5.54133	6542
5.54200	6541
5.54267	6540
5.54333	6539
5.54400	6538
5.54467	6537
5.54533	6536
5.54600	6535
5.54667	6533
5.54733	6532
5.54800	6531
5.54867	6530
5.54933	6529
5.55000	6528
5.55067	6527
5.55133	6526
5.55200	6525
5.55267	6523
5.55333	6522
5.55400	6521
5.55467	6520
5.55533	6519
5.55600	6518
5.55667	6516
5.55733	6515
5.55800	6514
5.55867	6513
5.55933	6512
5.56000	6511
5.56067	6510
5.56133	6509
5.56200	6508
5.56267	6507
5.56333	6506
5.56400	6505
5.56467	6504
5.56533	6503
5.56600	6501
5.56667	6500
5.56733	6499
5.56800	6498
5.56867	6497
5.56933	6496
5.57000	6495
5.57067	6494
5.57133	6493
5.57200	6492
5.57267	6492
5.57333	6491
5.57400	6490
5.57467	6489
5.57533	6488
5.57600	6487
5.57667	6486
5.57733	6486
5.57800	6485
5.57867	6484
5.57933	6483
5.58000	6483
5.58067	6482
5.58133	6481
5.58200	6480
5.58267	6480
5.58333	6479
5.58400	6478
5.58467	6478
5.58533	6477
5.58600	6477
5.58667	6476
5.58733	6475
5.58800	6475
5.58867	6474
5.58933	6473
5.59000	6473
5.59067	6472
5.59133	6472
5.59200	6471
5.59267	6470
5.59333	6470
5.59400	6469
5.59467	6468
5.59533	6468
5.59600	6467
5.59667	6466
5.59733	6465
5.59800	6465
5.59867	6464
5.59933	6463
5.60000	6462
5.60067	6461
5.60133	6460
5.60200	6460
5.60267	6459
5.60333	6458
5.60400	6457
5.60467	6456
5.60533	6455
5.60600	6454
5.60667	6453
5.60733	6452
5.60800	6451
5.60867	6450
5.60933	6449
5.61000	6448
5.61067	6448
5.61133	6447
5.61200	6446
5.61267	6445
5.61333	6444
5.61400	6443
5.61467	6443
5.61533	6442
5.61600	6441
5.61667	6440
5.61733	6440
5.61800	6439
5.61867	6438
5.61933	6438
5.62000	6437
5.62067	6436
5.62133	6435
5.62200	6435
5.62267	6434
5.62333	6433
5.62400	6433
5.62467	6432
5.62533	6431
5.62600	6431
5.62667	6430
5.62733	6429
5.62800	6429
5.62867	6428
5.62933	6427
5.63000	6427
5.63067	6426
5.63133	6425
5.63200	6425
5.63267	6424
5.63333	6424
5.63400	6423
5.63467	6422
5.63533	6422
5.63600	6422
5.63667	6421
5.63733	6421
5.63800	6420
5.63867	6420
5.63933	6419
5.64000	6419
5.64067	6419
5.64133	6418
5.64200	6418
5.64267	6417
5.64333	6417
5.64400	6417
5.64467	6416
5.64533	6416
5.64600	6416
5.64667	6415
5.64733	6415
5.64800	6414
5.64867	6414
5.64933	6414
5.65000	6413
5.65067	6413
5.65133	6413
5.65200	6412
5.65267	6412
5.65333	6411
5.65400	6411
5.65467	6410
5.65533	6410
5.65600	6409
5.65667	6409
5.65733	6408
5.65800	6408
5.65867	6407
5.65933	6406
5.66000	6406
5.66067	6405
5.66133	6404
5.66200	6404
5.66267	6403
5.66333	6402
5.66400	6401
5.66467	6401
5.66533	6400
5.66600	6399
5.66667	6398
5.66733	6398
5.66800	6397
5.66867	6396
5.66933	6395
5.67000	6395
5.67067	6394
5.67133	6393
5.67200	6392
5.67267	6392
5.67333	6391
5.67400	6390
5.67467	6389
5.67533	6388
5.67600	6388
5.67667	6387
5.67733	6386
5.67800	6386
5.67867	6385
5.67933	6384
5.68000	6383
5.68067	6383
5.68133	6382
5.68200	6381
5.68267	6380
5.68333	6380
5.68400	6379
5.68467	6378
5.68533	6378
5.68600	6377
5.68667	6376
5.68733	6375
5.68800	6375
5.68867	6374
5.68933	6373
5.69000	6373
5.69067	6372
5.69133	6371
5.69200	6371
5.69267	6370
5.69333	6370
5.69400	6369
5.69467	6369
5.69533	6368
5.69600	6368
5.69667	6367
5.69733	6366
5.69800	6366
5.69867	6365
5.69933	6365
5.70000	6364
5.70067	6364
5.70133	6363
5.70200	6363
5.70267	6362
5.70333	6362
5.70400	6361
5.70467	6361
5.70533	6360
5.70600	6360
5.70667	6359
5.70733	6359
5.70800	6358
5.70867	6358
5.70933	6358
5.71000	6357
5.71067	6357
5.71133	6356
5.71200	6356
5.71267	6356
5.71333	6355
5.71400	6355
5.71467	6354
5.71533	6354
5.71600	6354
5.71667	6353
5.71733	6353
5.71800	6352
5.71867	6352
5.71933	6351
5.72000	6351
5.72067	6351
5.72133	6350
5.72200	6350
5.72267	6349
5.72333	6349
5.72400	6348
5.72467	6348
5.72533	6347
5.72600	6347
5.72667	6346
5.72733	6346
5.72800	6345
5.72867	6345
5.72933	6345
5.73000	6344
5.73067	6344
5.73133	6343
5.73200	6343
5.73267	6343
5.73333	6342
5.73400	6342
5.73467	6342
5.73533	6341
5.73600	6341
5.73667	6341
5.73733	6341
5.73800	6341
5.73867	6341
5.73933	6340
5.74000	6340
5.74067	6340
5.74133	6340
5.74200	6340
5.74267	6339
5.74333	6339
5.74400	6339
5.74467	6339
5.74533	6338
5.74600	6338
5.74667	6338
5.74733	6337
5.74800	6337
5.74867	6337
5.74933	6337
5.75000	6336
5.75067	6336
5.75133	6336
5.75200	6336
5.75267	6336
5.75333	6335
5.75400	6335
5.75467	6335
5.75533	6335
5.75600	6335
5.75667	6335
5.75733	6335
5.75800	6335
5.75867	6335
5.75933	6335
5.76000	6335
5.76067	6335
5.76133	6335
5.76200	6334
5.76267	6334
5.76333	6334
5.76400	6334
5.76467	6334
5.76533	6334
5.76600	6334
5.76667	6334
5.76733	6334
5.76800	6334
5.76867	6334
5.76933	6335
5.77000	6335
5.77067	6335
5.77133	6335
5.77200	6335
5.77267	6335
5.77333	6335
5.77400	6335
5.77467	6335
5.77533	6335
5.77600	6335
5.77667	6335
5.77733	6336
5.77800	6336
5.77867	6336
5.77933	6336
5.78000	6336
5.78067	6336
5.78133	6336
5.78200	6337
5.78267	6337
5.78333	6337
5.78400	6337
5.78467	6337
5.78533	6338
5.78600	6338
5.78667	6338
5.78733	6339
5.78800	6339
5.78867	6339
5.78933	6339
5.79000	6340
5.79067	6340
5.79133	6340
5.79200	6340
5.79267	6341
5.79333	6341
5.79400	6341
5.79467	6342
5.79533	6342
5.79600	6342
5.79667	6343
5.79733	6343
5.79800	6344
5.79867	6344
5.79933	6344
5.80000	6345
5.80067	6345
5.80133	6345
5.80200	6346
5.80267	6346
5.80333	6346
5.80400	6347
5.80467	6347
5.80533	6347
5.80600	6348
5.80667	6348
5.80733	6348
5.80800	6349
5.80867	6349
5.80933	6350
5.81000	6350
5.81067	6350
5.81133	6350
5.81200	6351
5.81267	6351
5.81333	6352
5.81400	6352
5.81467	6352
5.81533	6353
5.81600	6353
5.81667	6353
5.81733	6354
5.81800	6354
5.81867	6355
5.81933	6355
5.82000	6355
5.82067	6356
5.82133	6356
5.82200	6357
5.82267	6357
5.82333	6357
5.82400	6358
5.82467	6358
5.82533	6359
5.82600	6359
5.82667	6360
5.82733	6360
5.82800	6361
5.82867	6361
5.82933	6362
5.83000	6362
5.83067	6362
5.83133	6363
5.83200	6363
5.83267	6363
5.83333	6364
5.83400	6364
5.83467	6364
5.83533	6365
5.83600	6365
5.83667	6365
5.83733	6366
5.83800	6366
5.83867	6366
5.83933	6366
5.84000	6367
5.84067	6367
5.84133	6367
5.84200	6367
5.84267	6368
5.84333	6368
5.84400	6368
5.84467	6368
5.84533	6368
5.84600	6368
5.84667	6369
5.84733	6369
5.84800	6369
5.84867	6369
5.84933	6369
5.85000	6369
5.85067	6369
5.85133	6369
5.85200	6369
5.85267	6369
5.85333	6369
5.85400	6369
5.85467	6369
5.85533	6369
5.85600	6369
5.85667	6370
5.85733	6370
5.85800	6370
5.85867	6370
5.85933	6370
5.86000	6370
5.86067	6370
5.86133	6370
5.86200	6370
5.86267	6370
5.86333	6370
5.86400	6370
5.86467	6370
5.86533	6370
5.86600	6370
5.86667	6370
5.86733	6370
5.86800	6370
5.86867	6370
5.86933	6371
5.87000	6371
5.87067	6371
5.87133	6371
5.87200	6371
5.87267	6372
5.87333	6372
5.87400	6372
5.87467	6372
5.87533	6373
5.87600	6373
5.87667	6373
5.87733	6373
5.87800	6373
5.87867	6374
5.87933	6374
5.88000	6374
5.88067	6374
5.88133	6374
5.88200	6375
5.88267	6375
5.88333	6375
5.88400	6375
5.88467	6376
5.88533	6376
5.88600	6376
5.88667	6376
5.88733	6376
5.88800	6377
5.88867	6377
5.88933	6377
5.89000	6377
5.89067	6377
5.89133	6377
5.89200	6377
5.89267	6377
5.89333	6378
5.89400	6378
5.89467	6378
5.89533	6377
5.89600	6377
5.89667	6377
5.89733	6377
5.89800	6377
5.89867	6377
5.89933	6376
5.90000	6376
5.90067	6376
5.90133	6375
5.90200	6375
5.90267	6375
5.90333	6374
5.90400	6374
5.90467	6374
5.90533	6373
5.90600	6373
5.90667	6372
5.90733	6372
5.90800	6371
5.90867	6371
5.90933	6370
5.91000	6370
5.91067	6369
5.91133	6369
5.91200	6368
5.91267	6368
5.91333	6367
5.91400	6367
5.91467	6366
5.91533	6366
5.91600	6365
5.91667	6365
5.91733	6364
5.91800	6363
5.91867	6363
5.91933	6362
5.92000	6362
5.92067	6361
5.92133	6361
5.92200	6360
5.92267	6360
5.92333	6359
5.92400	6359
5.92467	6358
5.92533	6357
5.92600	6357
5.92667	6356
5.92733	6355
5.92800	6355
5.92867	6354
5.92933	6353
5.93000	6352
5.93067	6351
5.93133	6351
5.93200	6350
5.93267	6349
5.93333	6348
5.93400	6347
5.93467	6346
5.93533	6345
5.93600	6344
5.93667	6343
5.93733	6342
5.93800	6341
5.93867	6340
5.93933	6339
5.94000	6338
5.94067	6337
5.94133	6336
5.94200	6335
5.94267	6334
5.94333	6334
5.94400	6333
5.94467	6332
5.94533	6331
5.94600	6330
5.94667	6329
5.94733	6328
5.94800	6327
5.94867	6326
5.94933	6325
5.95000	6324
5.95067	6323
5.95133	6322
5.95200	6321
5.95267	6320
5.95333	6319
5.95400	6319
5.95467	6318
5.95533	6317
5.95600	6316
5.95667	6315
5.95733	6314
5.95800	6313
5.95867	6312
5.95933	6311
5.96000	6310
5.96067	6309
5.96133	6309
5.96200	6308
5.96267	6307
5.96333	6306
5.96400	6305
5.96467	6304
5.96533	6303
5.96600	6302
5.96667	6301
5.96733	6300
5.96800	6299
5.96867	6298
5.96933	6297
5.97000	6297
5.97067	6296
5.97133	6295
5.97200	6294
5.97267	6293
5.97333	6293
5.97400	6292
5.97467	6291
5.97533	6290
5.97600	6290
5.97667	6289
5.97733	6288
5.97800	6288
5.97867	6287
5.97933	6286
5.98000	6286
5.98067	6285
5.98133	6284
5.98200	6284
5.98267	6283
5.98333	6282
5.98400	6282
5.98467	6281
5.98533	6280
5.98600	6279
5.98667	6279
5.98733	6278
5.98800	6277
5.98867	6276
5.98933	6276
5.99000	6275
5.99067	6274
5.99133	6273
5.99200	6273
5.99267	6272
5.99333	6271
5.99400	6271
5.99467	6270
5.99533	6269
5.99600	6268
5.99667	6268
5.99733	6267
5.99800	6266
5.99867	6265
5.99933	6265
6.00000	6264
6.00067	6263
6.00133	6263
6.00200	6262
6.00267	6261
6.00333	6261
6.00400	6260
6.00467	6260
6.00533	6259
6.00600	6258
6.00667	6258
6.00733	6257
6.00800	6257
6.00867	6256
6.00933	6256
6.01000	6255
6.01067	6254
6.01133	6254
6.01200	6253
6.01267	6253
6.01333	6252
6.01400	6251
6.01467	6251
6.01533	6250
6.01600	6250
6.01667	6249
6.01733	6249
6.01800	6248
6.01867	6248
6.01933	6247
6.02000	6247
6.02067	6246
6.02133	6246
6.02200	6245
6.02267	6245
6.02333	6245
6.02400	6244
6.02467	6244
6.02533	6243
6.02600	6243
6.02667	6242
6.02733	6242
6.02800	6242
6.02867	6241
6.02933	6241
6.03000	6240
6.03067	6240
6.03133	6240
6.03200	6239
6.03267	6239
6.03333	6238
6.03400	6238
6.03467	6237
6.03533	6237
6.03600	6236
6.03667	6236
6.03733	6235
6.03800	6235
6.03867	6234
6.03933	6233
6.04000	6233
6.04067	6232
6.04133	6232
6.04200	6231
6.04267	6231
6.04333	6230
6.04400	6230
6.04467	6229
6.04533	6229
6.04600	6228
6.04667	6228
6.04733	6228
6.04800	6227
6.04867	6227
6.04933	6226
6.05000	6226
6.05067	6226
6.05133	6225
6.05200	6225
6.05267	6224
6.05333	6224
6.05400	6223
6.05467	6223
6.05533	6222
6.05600	6222
6.05667	6222
6.05733	6221
6.05800	6221
6.05867	6220
6.05933	6220
6.06000	6220
6.06067	6219
6.06133	6219
6.06200	6219
6.06267	6218
6.06333	6218
6.06400	6218
6.06467	6217
6.06533	6217
6.06600	6217
6.06667	6216
6.06733	6216
6.06800	6216
6.06867	6215
6.06933	6215
6.07000	6215
6.07067	6215
6.07133	6214
6.07200	6214
6.07267	6214
6.07333	6214
6.07400	6214
6.07467	6213
6.07533	6213
6.07600	6213
6.07667	6213
6.07733	6213
6.07800	6212
6.07867	6212
6.07933	6212
6.08000	6212
6.08067	6212
6.08133	6211
6.08200	6211
6.08267	6211
6.08333	6211
6.08400	6210
6.08467	6210
6.08533	6210
6.08600	6210
6.08667	6209
6.08733	6209
6.08800	6209
6.08867	6208
6.08933	6208
6.09000	6208
6.09067	6208
6.09133	6207
6.09200	6207
6.09267	6207
6.09333	6206
6.09400	6206
6.09467	6206
6.09533	6205
6.09600	6205
6.09667	6205
6.09733	6204
6.09800	6204
6.09867	6204
6.09933	6204
6.10000	6203
6.10067	6203
6.10133	6203
6.10200	6203
6.10267	6202
6.10333	6202
6.10400	6202
6.10467	6201
6.10533	6201
6.10600	6201
6.10667	6200
6.10733	6200
6.10800	6199
6.10867	6199
6.10933	6199
6.11000	6199
6.11067	6198
6.11133	6198
6.11200	6198
6.11267	6197
6.11333	6197
6.11400	6197
6.11467	6196
6.11533	6196
6.11600	6196
6.11667	6196
6.11733	6196
6.11800	6195
6.11867	6195
6.11933	6195
6.12000	6195
6.12067	6195
6.12133	6194
6.12200	6194
6.12267	6194
6.12333	6193
6.12400	6193
6.12467	6193
6.12533	6192
6.12600	6192
6.12667	6192
6.12733	6192
6.12800	6191
6.12867	6191
6.12933	6191
6.13000	6190
6.13067	6190
6.13133	6190
6.13200	6189
6.13267	6189
6.13333	6189
6.13400	6189
6.13467	6189
6.13533	6188
6.13600	6188
6.13667	6188
6.13733	6188
6.13800	6188
6.13867	6188
6.13933	6188
6.14000	6187
6.14067	6187
6.14133	6187
6.14200	6187
6.14267	6187
6.14333	6187
6.14400	6187
6.14467	6187
6.14533	6187
6.14600	6187
6.14667	6187
6.14733	6187
6.14800	6187
6.14867	6187
6.14933	6187
6.15000	6187
6.15067	6187
6.15133	6187
6.15200	6187
6.15267	6187
6.15333	6187
6.15400	6187
6.15467	6187
6.15533	6187
6.15600	6187
6.15667	6187
6.15733	6187
6.15800	6187
6.15867	6187
6.15933	6187
6.16000	6187
6.16067	6187
6.16133	6187
6.16200	6187
6.16267	6186
6.16333	6186
6.16400	6186
6.16467	6186
6.16533	6186
6.16600	6186
6.16667	6186
6.16733	6186
6.16800	6186
6.16867	6186
6.16933	6185
6.17000	6186
6.17067	6186
6.17133	6186
6.17200	6186
6.17267	6186
6.17333	6186
6.17400	6186
6.17467	6186
6.17533	6186
6.17600	6186
6.17667	6186
6.17733	6186
6.17800	6186
6.17867	6186
6.17933	6186
6.18000	6186
6.18067	6186
6.18133	6186
6.18200	6186
6.18267	6186
6.18333	6186
6.18400	6186
6.18467	6187
6.18533	6187
6.18600	6187
6.18667	6187
6.18733	6187
6.18800	6187
6.18867	6187
6.18933	6187
6.19000	6187
6.19067	6187
6.19133	6187
6.19200	6186
6.19267	6186
6.19333	6186
6.19400	6186
6.19467	6186
6.19533	6186
6.19600	6185
6.19667	6185
6.19733	6185
6.19800	6185
6.19867	6185
6.19933	6185
6.20000	6184
6.20067	6184
6.20133	6184
6.20200	6184
6.20267	6184
6.20333	6184
6.20400	6184
6.20467	6184
6.20533	6184
6.20600	6184
6.20667	6184
6.20733	6184
6.20800	6184
6.20867	6184
6.20933	6184
6.21000	6184
6.21067	6184
6.21133	6184
6.21200	6184
6.21267	6184
6.21333	6184
6.21400	6184
6.21467	6185
6.21533	6185
6.21600	6185
6.21667	6185
6.21733	6185
6.21800	6185
6.21867	6185
6.21933	6185
6.22000	6185
6.22067	6185
6.22133	6185
6.22200	6185
6.22267	6185
6.22333	6185
6.22400	6185
6.22467	6185
6.22533	6185
6.22600	6185
6.22667	6185
6.22733	6186
6.22800	6186
6.22867	6186
6.22933	6186
6.23000	6186
6.23067	6186
6.23133	6186
6.23200	6187
6.23267	6187
6.23333	6187
6.23400	6188
6.23467	6188
6.23533	6188
6.23600	6189
6.23667	6189
6.23733	6189
6.23800	6190
6.23867	6190
6.23933	6191
6.24000	6191
6.24067	6191
6.24133	6192
6.24200	6192
6.24267	6193
6.24333	6193
6.24400	6194
6.24467	6194
6.24533	6194
6.24600	6195
6.24667	6195
6.24733	6195
6.24800	6196
6.24867	6196
6.24933	6196
6.25000	6197
6.25067	6197
6.25133	6197
6.25200	6197
6.25267	6198
6.25333	6198
6.25400	6198
6.25467	6199
6.25533	6199
6.25600	6199
6.25667	6200
6.25733	6200
6.25800	6200
6.25867	6200
6.25933	6201
6.26000	6201
6.26067	6201
6.26133	6202
6.26200	6202
6.26267	6202
6.26333	6203
6.26400	6203
6.26467	6203
6.26533	6204
6.26600	6204
6.26667	6204
6.26733	6205
6.26800	6205
6.26867	6206
6.26933	6206
6.27000	6206
6.27067	6207
6.27133	6207
6.27200	6207
6.27267	6208
6.27333	6208
6.27400	6209
6.27467	6209
6.27533	6209
6.27600	6210
6.27667	6210
6.27733	6210
6.27800	6211
6.27867	6211
6.27933	6211
6.28000	6212
6.28067	6212
6.28133	6212
6.28200	6213
6.28267	6213
6.28333	6213
6.28400	6214
6.28467	6214
6.28533	6214
6.28600	6215
6.28667	6215
6.28733	6216
6.28800	6216
6.28867	6216
6.28933	6217
6.29000	6217
6.29067	6218
6.29133	6218
6.29200	6218
6.29267	6219
6.29333	6219
6.29400	6220
6.29467	6220
6.29533	6220
6.29600	6221
6.29667	6221
6.29733	6222
6.29800	6222
6.29867	6223
6.29933	6223
6.30000	6224
6.30067	6224
6.30133	6225
6.30200	6225
6.30267	6226
6.30333	6227
6.30400	6227
6.30467	6228
6.30533	6228
6.30600	6229
6.30667	6229
6.30733	6230
6.30800	6230
6.30867	6231
6.30933	6231
6.31000	6232
6.31067	6232
6.31133	6233
6.31200	6233
6.31267	6234
6.31333	6234
6.31400	6235
6.31467	6235
6.31533	6236
6.31600	6236
6.31667	6237
6.31733	6237
6.31800	6238
6.31867	6238
6.31933	6238
6.32000	6239
6.32067	6239
6.32133	6240
6.32200	6240
6.32267	6241
6.32333	6241
6.32400	6242
6.32467	6242
6.32533	6243
6.32600	6243
6.32667	6244
6.32733	6244
6.32800	6245
6.32867	6245
6.32933	6246
6.33000	6246
6.33067	6247
6.33133	6247
6.33200	6248
6.33267	6248
6.33333	6249
6.33400	6249
6.33467	6249
6.33533	6250
6.33600	6250
6.33667	6251
6.33733	6251
6.33800	6252
6.33867	6252
6.33933	6252
6.34000	6253
6.34067	6253
6.34133	6254
6.34200	6255
6.34267	6255
6.34333	6256
6.34400	6256
6.34467	6257
6.34533	6257
6.34600	6258
6.34667	6258
6.34733	6259
6.34800	6259
6.34867	6260
6.34933	6260
6.35000	6261
6.35067	6261
6.35133	6262
6.35200	6262
6.35267	6263
6.35333	6263
6.35400	6264
6.35467	6264
6.35533	6265
6.35600	6265
6.35667	6266
6.35733	6266
6.35800	6267
6.35867	6267
6.35933	6268
6.36000	6269
6.36067	6269
6.36133	6270
6.36200	6270
6.36267	6271
6.36333	6271
6.36400	6272
6.36467	6272
6.36533	6273
6.36600	6273
6.36667	6274
6.36733	6274
6.36800	6275
6.36867	6275
6.36933	6276
6.37000	6276
6.37067	6276
6.37133	6277
6.37200	6277
6.37267	6278
6.37333	6278
6.37400	6279
6.37467	6279
6.37533	6279
6.37600	6280
6.37667	6280
6.37733	6280
6.37800	6281
6.37867	6281
6.37933	6281
6.38000	6282
6.38067	6282
6.38133	6282
6.38200	6282
6.38267	6283
6.38333	6283
6.38400	6283
6.38467	6283
6.38533	6283
6.38600	6284
6.38667	6284
6.38733	6284
6.38800	6284
6.38867	6284
6.38933	6285
6.39000	6285
6.39067	6285
6.39133	6285
6.39200	6285
6.39267	6286
6.39333	6286
6.39400	6286
6.39467	6286
6.39533	6287
6.39600	6287
6.39667	6287
6.39733	6287
6.39800	6287
6.39867	6288
6.39933	6288

